SpectraSuite Data File
++++++++++++++++++++++++++++++++++++
Date: Tue May 12 09:53:12 PDT 2015
User: schluterlab
Dark Spectrum Present: Yes
Reference Spectrum Present: No
Number of Sampled Component Spectra: 1
Spectrometers: USB2E3373
Integration Time (usec): 2000000 (USB2E3373)
Spectra Averaged: 3 (USB2E3373)
Boxcar Smoothing: 0 (USB2E3373)
Correct for Electrical Dark: No (USB2E3373)
Strobe/Lamp Enabled: No (USB2E3373)
Correct for Detector Non-linearity: No (USB2E3373)
Correct for Stray Light: No (USB2E3373)
Number of Pixels in Processed Spectrum: 2048
>>>>>Begin Processed Spectral Data<<<<<
178.53	-0.0000E00
178.91	-0.0000E00
179.29	-0.0000E00
179.67	-0.0000E00
180.04	-0.0000E00
180.42	0.0000E00
180.80	0.0000E00
181.18	0.0000E00
181.56	0.0000E00
181.94	0.0000E00
182.31	0.0000E00
182.69	0.0000E00
183.07	0.0000E00
183.45	0.0000E00
183.83	0.0000E00
184.20	0.0000E00
184.58	0.0000E00
184.96	0.0000E00
185.34	0.0000E00
185.72	0.0000E00
186.09	0.0000E00
186.47	0.0000E00
186.85	0.0000E00
187.23	0.0000E00
187.61	0.0000E00
187.98	0.0000E00
188.36	0.0000E00
188.74	0.0000E00
189.12	0.0000E00
189.49	0.0000E00
189.87	0.0000E00
190.25	0.0000E00
190.63	0.0000E00
191.00	0.0000E00
191.38	0.0000E00
191.76	0.0000E00
192.14	0.0000E00
192.51	0.0000E00
192.89	0.0000E00
193.27	0.0000E00
193.65	0.0000E00
194.02	0.0000E00
194.40	0.0000E00
194.78	0.0000E00
195.15	0.0000E00
195.53	-0.0000E00
195.91	0.0000E00
196.29	0.0000E00
196.66	0.0000E00
197.04	0.0000E00
197.42	0.0000E00
197.79	0.0000E00
198.17	0.0000E00
198.55	0.0000E00
198.92	0.0000E00
199.30	0.0000E00
199.68	0.0000E00
200.05	0.0000E00
200.43	0.0000E00
200.81	0.0000E00
201.18	0.0000E00
201.56	0.0000E00
201.94	0.0000E00
202.31	-0.0000E00
202.69	0.0000E00
203.07	0.0000E00
203.44	0.0000E00
203.82	0.0000E00
204.19	0.0000E00
204.57	0.0000E00
204.95	0.0000E00
205.32	0.0000E00
205.70	0.0000E00
206.08	0.0000E00
206.45	0.0000E00
206.83	0.0000E00
207.20	0.0000E00
207.58	0.0000E00
207.96	0.0000E00
208.33	0.0000E00
208.71	0.0000E00
209.08	0.0000E00
209.46	0.0000E00
209.84	0.0000E00
210.21	0.0000E00
210.59	0.0000E00
210.96	0.0000E00
211.34	0.0000E00
211.71	0.0000E00
212.09	0.0000E00
212.46	0.0000E00
212.84	0.0000E00
213.22	0.0000E00
213.59	0.0000E00
213.97	0.0000E00
214.34	0.0000E00
214.72	0.0000E00
215.09	0.0000E00
215.47	0.0000E00
215.84	0.0000E00
216.22	0.0000E00
216.59	0.0000E00
216.97	0.0000E00
217.34	0.0000E00
217.72	0.0000E00
218.09	0.0000E00
218.47	0.0000E00
218.84	0.0000E00
219.22	0.0000E00
219.59	0.0000E00
219.97	0.0000E00
220.34	0.0000E00
220.72	0.0000E00
221.09	0.0000E00
221.47	0.0000E00
221.84	0.0000E00
222.22	0.0000E00
222.59	0.0000E00
222.97	0.0000E00
223.34	0.0000E00
223.72	0.0000E00
224.09	0.0000E00
224.46	0.0000E00
224.84	0.0000E00
225.21	0.0000E00
225.59	0.0000E00
225.96	0.0000E00
226.34	0.0000E00
226.71	0.0000E00
227.08	0.0000E00
227.46	0.0000E00
227.83	0.0000E00
228.21	0.0000E00
228.58	0.0000E00
228.95	0.0000E00
229.33	0.0000E00
229.70	0.0000E00
230.08	0.0000E00
230.45	0.0000E00
230.82	0.0000E00
231.20	0.0000E00
231.57	0.0000E00
231.95	0.0000E00
232.32	0.0000E00
232.69	0.0000E00
233.07	0.0000E00
233.44	0.0000E00
233.81	0.0000E00
234.19	0.0000E00
234.56	0.0000E00
234.93	0.0000E00
235.31	0.0000E00
235.68	0.0000E00
236.05	0.0000E00
236.43	0.0000E00
236.80	0.0000E00
237.17	0.0000E00
237.55	0.0000E00
237.92	0.0000E00
238.29	0.0000E00
238.67	0.0000E00
239.04	0.0000E00
239.41	0.0000E00
239.79	0.0000E00
240.16	0.0000E00
240.53	0.0000E00
240.91	0.0000E00
241.28	0.0000E00
241.65	0.0000E00
242.02	0.0000E00
242.40	0.0000E00
242.77	0.0000E00
243.14	0.0000E00
243.51	0.0000E00
243.89	0.0000E00
244.26	0.0000E00
244.63	0.0000E00
245.00	0.0000E00
245.38	0.0000E00
245.75	0.0000E00
246.12	0.0000E00
246.49	0.0000E00
246.87	0.0000E00
247.24	0.0000E00
247.61	0.0000E00
247.98	0.0000E00
248.36	0.0000E00
248.73	0.0000E00
249.10	0.0000E00
249.47	0.0000E00
249.84	0.0000E00
250.22	0.0000E00
250.59	0.0000E00
250.96	0.0000E00
251.33	0.0000E00
251.70	0.0000E00
252.08	0.0000E00
252.45	0.0000E00
252.82	0.0000E00
253.19	0.0000E00
253.56	0.0000E00
253.94	0.0000E00
254.31	0.0000E00
254.68	0.0000E00
255.05	0.0000E00
255.42	0.0000E00
255.79	0.0000E00
256.16	0.0000E00
256.54	0.0000E00
256.91	0.0000E00
257.28	0.0000E00
257.65	0.0000E00
258.02	0.0000E00
258.39	0.0000E00
258.76	0.0000E00
259.14	0.0000E00
259.51	0.0000E00
259.88	0.0000E00
260.25	0.0000E00
260.62	0.0000E00
260.99	0.0000E00
261.36	0.0000E00
261.73	0.0000E00
262.10	0.0000E00
262.47	0.0000E00
262.85	0.0000E00
263.22	0.0000E00
263.59	0.0000E00
263.96	0.0000E00
264.33	0.0000E00
264.70	0.0000E00
265.07	0.0000E00
265.44	0.0000E00
265.81	0.0000E00
266.18	0.0000E00
266.55	0.0000E00
266.92	0.0000E00
267.29	0.0000E00
267.66	0.0000E00
268.03	0.0000E00
268.40	0.0000E00
268.77	0.0000E00
269.14	0.0000E00
269.51	0.0000E00
269.88	0.0000E00
270.25	0.0000E00
270.62	0.0000E00
270.99	0.0000E00
271.36	0.0000E00
271.73	0.0000E00
272.10	0.0000E00
272.47	0.0000E00
272.84	0.0000E00
273.21	0.0000E00
273.58	0.0000E00
273.95	0.0000E00
274.32	0.0000E00
274.69	0.0000E00
275.06	0.0000E00
275.43	0.0000E00
275.80	0.0000E00
276.17	0.0000E00
276.54	0.0000E00
276.91	0.0000E00
277.28	0.0000E00
277.65	0.0000E00
278.02	0.0000E00
278.39	0.0000E00
278.76	0.0000E00
279.13	0.0000E00
279.50	0.0000E00
279.87	0.0000E00
280.23	0.0000E00
280.60	0.0000E00
280.97	0.0000E00
281.34	0.0000E00
281.71	0.0000E00
282.08	0.0000E00
282.45	0.0000E00
282.82	0.0000E00
283.19	0.0000E00
283.56	0.0000E00
283.92	0.0000E00
284.29	0.0000E00
284.66	0.0000E00
285.03	0.0000E00
285.40	0.0000E00
285.77	0.0000E00
286.14	0.0000E00
286.51	0.0000E00
286.87	0.0000E00
287.24	0.0000E00
287.61	0.0000E00
287.98	0.0000E00
288.35	0.0000E00
288.72	0.0000E00
289.08	0.0000E00
289.45	0.0000E00
289.82	0.0000E00
290.19	0.0000E00
290.56	0.0000E00
290.93	0.0000E00
291.29	0.0000E00
291.66	0.0000E00
292.03	0.0000E00
292.40	0.0000E00
292.77	0.0000E00
293.13	0.0000E00
293.50	0.0000E00
293.87	0.0000E00
294.24	0.0000E00
294.60	0.0000E00
294.97	0.0000E00
295.34	0.0000E00
295.71	0.0000E00
296.08	0.0000E00
296.44	0.0000E00
296.81	0.0000E00
297.18	0.0000E00
297.55	0.0000E00
297.91	0.0000E00
298.28	0.0000E00
298.65	0.0000E00
299.02	0.0000E00
299.38	0.0000E00
299.75	0.0000E00
300.12	6.4574E-02
300.48	1.8476E-01
300.85	6.5548E-02
301.22	1.7218E-01
301.59	5.9248E-02
301.95	7.0435E-02
302.32	9.3539E-02
302.69	9.4149E-02
303.05	5.8270E-02
303.42	7.6818E-02
303.79	9.2901E-02
304.15	5.8973E-02
304.52	6.0692E-02
304.89	5.5977E-02
305.25	1.2003E-01
305.62	6.7228E-02
305.99	9.2670E-02
306.35	4.8055E-02
306.72	6.4325E-02
307.09	8.1875E-02
307.45	6.7171E-02
307.82	4.3351E-02
308.19	5.5191E-02
308.55	5.4609E-02
308.92	6.8329E-02
309.29	5.2566E-02
309.65	1.3467E-01
310.02	5.2219E-02
310.38	4.6280E-02
310.75	5.9148E-02
311.12	5.5624E-02
311.48	9.0171E-02
311.85	7.2597E-02
312.22	5.3141E-02
312.58	9.6173E-02
312.95	6.0101E-02
313.31	5.3628E-02
313.68	6.9460E-02
314.05	1.1593E-01
314.41	6.4263E-02
314.78	4.1036E-02
315.14	1.3738E-01
315.51	1.2923E-01
315.87	5.7585E-02
316.24	8.3317E-02
316.61	7.6115E-02
316.97	5.0068E-02
317.34	1.0377E-01
317.70	6.3965E-02
318.07	7.2423E-02
318.43	8.7510E-02
318.80	5.9485E-02
319.16	7.0838E-02
319.53	5.0332E-02
319.89	1.0729E-01
320.26	8.7010E-02
320.62	9.1163E-02
320.99	9.4240E-02
321.35	5.3895E-02
321.72	9.1479E-02
322.08	1.0497E-01
322.45	1.0823E-01
322.81	6.6056E-02
323.18	2.6314E-01
323.54	1.2291E-01
323.91	8.2065E-02
324.27	1.8524E-01
324.64	1.3848E-01
325.00	1.1465E-01
325.37	1.5135E-01
325.73	5.6681E-02
326.10	2.3822E-01
326.46	9.8449E-02
326.83	9.7313E-02
327.19	1.7448E-01
327.56	7.7556E-02
327.92	1.0937E-01
328.29	8.8023E-02
328.65	1.0031E-01
329.01	1.3294E-01
329.38	8.7740E-02
329.74	7.0807E-02
330.11	1.2303E-01
330.47	7.3651E-02
330.84	1.0031E-01
331.20	1.0447E-01
331.56	9.5070E-02
331.93	1.0736E-01
332.29	1.2292E-01
332.66	7.1054E-02
333.02	9.5666E-02
333.38	1.3429E-01
333.75	7.1907E-02
334.11	1.8745E-01
334.48	9.8307E-02
334.84	8.8344E-02
335.20	1.1265E-01
335.57	2.0694E-01
335.93	1.3895E-01
336.29	1.1861E-01
336.66	1.0103E-01
337.02	1.0188E-01
337.38	8.8747E-02
337.75	9.8259E-02
338.11	7.8260E-02
338.47	1.1600E-01
338.84	9.7650E-02
339.20	7.7908E-02
339.56	2.3312E-01
339.93	1.1377E-01
340.29	1.0351E-01
340.65	9.7010E-02
341.02	1.6645E-01
341.38	1.1227E-01
341.74	1.3137E-01
342.11	1.3275E-01
342.47	1.3135E-01
342.83	1.1093E-01
343.20	1.5843E-01
343.56	1.0295E-01
343.92	2.1841E-01
344.28	8.6057E-02
344.65	1.3550E-01
345.01	8.9540E-02
345.37	1.3693E-01
345.73	1.3425E-01
346.10	1.1123E-01
346.46	1.5110E-01
346.82	1.0122E-01
347.19	2.3513E-01
347.55	9.4372E-02
347.91	1.0032E-01
348.27	1.0977E-01
348.63	9.5463E-02
349.00	1.0629E-01
349.36	2.0146E-01
349.72	1.3468E-01
350.08	1.9791E-01
350.45	1.2395E-01
350.81	1.0969E-01
351.17	1.6381E-01
351.53	1.7123E-01
351.89	1.4567E-01
352.26	1.7502E-01
352.62	1.3347E-01
352.98	1.4544E-01
353.34	1.3111E-01
353.70	1.8440E-01
354.07	1.8076E-01
354.43	2.0878E-01
354.79	1.7514E-01
355.15	1.3750E-01
355.51	1.2893E-01
355.87	1.5149E-01
356.24	1.4854E-01
356.60	1.5049E-01
356.96	1.6724E-01
357.32	1.2838E-01
357.68	1.3172E-01
358.04	1.0885E-01
358.40	1.2195E-01
358.77	1.1466E-01
359.13	1.3930E-01
359.49	1.6148E-01
359.85	1.7575E-01
360.21	1.3655E-01
360.57	1.7181E-01
360.93	1.6950E-01
361.29	2.0188E-01
361.66	1.4871E-01
362.02	1.4297E-01
362.38	1.8442E-01
362.74	1.7194E-01
363.10	2.4015E-01
363.46	2.2727E-01
363.82	1.9285E-01
364.18	2.4943E-01
364.54	2.3718E-01
364.90	2.3463E-01
365.26	2.3343E-01
365.62	2.8001E-01
365.98	2.6265E-01
366.35	2.2088E-01
366.71	2.7957E-01
367.07	3.5113E-01
367.43	2.3145E-01
367.79	3.3659E-01
368.15	2.9980E-01
368.51	3.8825E-01
368.87	3.1949E-01
369.23	3.4874E-01
369.59	2.8407E-01
369.95	3.2143E-01
370.31	3.1005E-01
370.67	3.6216E-01
371.03	2.9944E-01
371.39	3.0442E-01
371.75	3.1941E-01
372.11	3.3247E-01
372.47	2.9439E-01
372.83	3.0741E-01
373.19	2.4599E-01
373.55	3.0899E-01
373.91	3.3325E-01
374.27	3.4699E-01
374.63	3.3903E-01
374.99	3.1280E-01
375.35	3.2358E-01
375.71	3.4358E-01
376.07	3.7539E-01
376.42	3.8473E-01
376.78	3.6473E-01
377.14	4.2311E-01
377.50	5.0794E-01
377.86	4.5113E-01
378.22	4.6856E-01
378.58	4.8341E-01
378.94	4.6370E-01
379.30	4.6564E-01
379.66	4.3981E-01
380.02	4.3106E-01
380.38	4.4246E-01
380.74	5.0345E-01
381.09	5.2398E-01
381.45	4.8567E-01
381.81	4.5075E-01
382.17	4.3592E-01
382.53	4.2219E-01
382.89	3.6476E-01
383.25	3.6016E-01
383.61	3.5564E-01
383.97	3.4597E-01
384.32	3.6474E-01
384.68	3.9798E-01
385.04	4.9393E-01
385.40	5.2474E-01
385.76	5.4079E-01
386.12	4.8106E-01
386.48	5.0877E-01
386.83	4.8093E-01
387.19	4.9925E-01
387.55	5.5884E-01
387.91	5.5169E-01
388.27	5.1311E-01
388.62	5.7339E-01
388.98	5.3828E-01
389.34	6.1663E-01
389.70	6.1802E-01
390.06	6.6635E-01
390.42	6.8404E-01
390.77	6.8762E-01
391.13	7.6777E-01
391.49	7.3253E-01
391.85	7.7862E-01
392.20	6.7531E-01
392.56	6.2868E-01
392.92	6.0314E-01
393.28	5.1926E-01
393.64	4.7139E-01
393.99	4.6084E-01
394.35	5.1589E-01
394.71	5.8401E-01
395.07	6.7186E-01
395.42	7.5510E-01
395.78	7.7572E-01
396.14	7.0693E-01
396.50	6.7939E-01
396.85	6.4084E-01
397.21	5.6893E-01
397.57	5.9209E-01
397.92	6.4324E-01
398.28	7.2146E-01
398.64	8.6072E-01
399.00	6.8916E-01
399.35	7.1350E-01
399.71	7.6519E-01
400.07	7.4649E-01
400.42	7.2886E-01
400.78	7.4715E-01
401.14	7.5042E-01
401.49	6.9560E-01
401.85	6.9192E-01
402.21	7.0258E-01
402.57	6.9786E-01
402.92	7.3627E-01
403.28	7.0041E-01
403.63	6.9684E-01
403.99	7.1282E-01
404.35	6.9208E-01
404.70	6.7945E-01
405.06	6.9017E-01
405.42	7.0562E-01
405.77	6.5589E-01
406.13	6.5540E-01
406.49	6.5046E-01
406.84	6.5844E-01
407.20	6.4306E-01
407.55	6.9350E-01
407.91	7.0555E-01
408.27	6.6104E-01
408.62	6.6499E-01
408.98	6.7347E-01
409.34	6.8563E-01
409.69	6.5618E-01
410.05	6.9113E-01
410.40	6.6021E-01
410.76	6.1018E-01
411.11	6.1562E-01
411.47	6.6745E-01
411.83	6.3235E-01
412.18	6.4503E-01
412.54	6.3207E-01
412.89	6.2773E-01
413.25	6.5194E-01
413.60	6.7968E-01
413.96	6.3784E-01
414.31	6.4157E-01
414.67	6.7722E-01
415.03	6.6425E-01
415.38	6.7973E-01
415.74	6.7164E-01
416.09	6.6790E-01
416.45	6.7639E-01
416.80	6.6406E-01
417.16	6.5866E-01
417.51	6.5490E-01
417.87	6.3004E-01
418.22	6.2306E-01
418.58	6.3609E-01
418.93	6.0943E-01
419.29	6.5322E-01
419.64	6.3424E-01
420.00	5.9916E-01
420.35	5.8877E-01
420.71	6.1761E-01
421.06	6.2059E-01
421.42	6.3609E-01
421.77	6.2648E-01
422.12	6.2574E-01
422.48	5.9265E-01
422.83	6.3310E-01
423.19	5.9836E-01
423.54	5.9891E-01
423.90	6.0570E-01
424.25	5.7179E-01
424.61	6.3111E-01
424.96	5.9071E-01
425.31	5.8659E-01
425.67	5.6268E-01
426.02	5.8764E-01
426.38	5.8763E-01
426.73	5.5635E-01
427.09	5.8218E-01
427.44	5.5818E-01
427.79	5.6441E-01
428.15	5.8191E-01
428.50	5.7764E-01
428.85	5.9116E-01
429.21	5.4603E-01
429.56	5.3391E-01
429.92	5.4426E-01
430.27	5.6267E-01
430.62	5.6220E-01
430.98	5.6883E-01
431.33	5.5648E-01
431.68	5.3739E-01
432.04	5.3349E-01
432.39	5.4128E-01
432.74	5.6080E-01
433.10	5.2588E-01
433.45	5.5705E-01
433.80	5.5388E-01
434.16	5.6582E-01
434.51	5.3914E-01
434.86	5.6048E-01
435.22	5.4066E-01
435.57	5.7798E-01
435.92	5.6644E-01
436.28	5.6353E-01
436.63	5.2304E-01
436.98	5.5994E-01
437.34	5.5554E-01
437.69	5.2810E-01
438.04	5.1367E-01
438.39	5.4996E-01
438.75	5.6299E-01
439.10	5.0838E-01
439.45	5.5239E-01
439.81	5.4617E-01
440.16	5.1331E-01
440.51	5.3654E-01
440.86	5.3454E-01
441.22	5.2269E-01
441.57	5.2762E-01
441.92	5.1243E-01
442.27	5.3772E-01
442.63	5.2587E-01
442.98	5.6188E-01
443.33	5.4999E-01
443.68	5.1122E-01
444.03	4.8293E-01
444.39	4.8498E-01
444.74	5.2634E-01
445.09	5.3427E-01
445.44	5.3565E-01
445.79	4.7267E-01
446.15	5.0766E-01
446.50	5.2471E-01
446.85	4.9370E-01
447.20	4.8019E-01
447.55	5.1927E-01
447.91	4.9942E-01
448.26	5.1255E-01
448.61	5.0729E-01
448.96	4.9755E-01
449.31	5.0508E-01
449.66	5.1010E-01
450.02	5.0164E-01
450.37	5.0263E-01
450.72	4.9543E-01
451.07	5.3432E-01
451.42	5.3129E-01
451.77	5.0170E-01
452.12	5.0111E-01
452.47	5.2395E-01
452.83	4.8177E-01
453.18	5.0990E-01
453.53	5.0393E-01
453.88	4.7497E-01
454.23	4.6880E-01
454.58	4.6845E-01
454.93	5.0325E-01
455.28	5.0076E-01
455.63	4.8565E-01
455.98	4.7439E-01
456.34	5.0025E-01
456.69	4.8485E-01
457.04	4.8852E-01
457.39	4.5833E-01
457.74	4.6792E-01
458.09	4.5561E-01
458.44	4.5479E-01
458.79	4.4483E-01
459.14	4.5985E-01
459.49	4.7885E-01
459.84	4.5206E-01
460.19	4.8124E-01
460.54	4.7817E-01
460.89	4.4050E-01
461.24	4.8246E-01
461.59	4.6156E-01
461.94	4.6760E-01
462.29	4.3717E-01
462.64	4.6261E-01
462.99	4.6692E-01
463.34	4.9402E-01
463.69	4.6292E-01
464.04	4.3210E-01
464.39	4.4834E-01
464.74	4.5471E-01
465.09	4.6688E-01
465.44	4.3946E-01
465.79	4.5384E-01
466.14	4.5597E-01
466.49	4.4806E-01
466.84	4.4428E-01
467.19	4.5959E-01
467.54	4.6135E-01
467.89	4.3896E-01
468.24	4.1603E-01
468.59	4.2956E-01
468.94	4.2074E-01
469.29	4.2294E-01
469.64	4.3719E-01
469.99	4.2119E-01
470.34	4.0797E-01
470.68	4.3395E-01
471.03	4.1897E-01
471.38	4.2028E-01
471.73	4.0033E-01
472.08	3.9580E-01
472.43	3.8208E-01
472.78	4.0296E-01
473.13	3.9866E-01
473.48	3.9199E-01
473.83	3.8468E-01
474.17	3.9016E-01
474.52	3.8614E-01
474.87	3.7042E-01
475.22	3.7815E-01
475.57	3.5980E-01
475.92	3.5032E-01
476.27	3.6108E-01
476.61	3.5140E-01
476.96	3.4250E-01
477.31	3.3196E-01
477.66	3.3840E-01
478.01	3.3630E-01
478.36	3.3437E-01
478.70	3.2964E-01
479.05	3.3445E-01
479.40	3.1931E-01
479.75	3.1599E-01
480.10	3.1805E-01
480.45	3.1083E-01
480.79	3.0905E-01
481.14	3.1343E-01
481.49	3.0588E-01
481.84	3.0035E-01
482.19	2.9849E-01
482.53	2.9777E-01
482.88	2.9518E-01
483.23	2.9036E-01
483.58	2.8422E-01
483.92	2.9126E-01
484.27	2.8224E-01
484.62	2.8045E-01
484.97	2.7418E-01
485.31	2.7315E-01
485.66	2.7878E-01
486.01	2.7887E-01
486.36	2.6571E-01
486.70	2.7289E-01
487.05	2.7130E-01
487.40	2.7151E-01
487.75	2.6339E-01
488.09	2.6384E-01
488.44	2.6622E-01
488.79	2.6227E-01
489.13	2.5936E-01
489.48	2.6244E-01
489.83	2.6305E-01
490.17	2.5583E-01
490.52	2.5570E-01
490.87	2.5681E-01
491.22	2.6037E-01
491.56	2.5677E-01
491.91	2.6016E-01
492.26	2.5701E-01
492.60	2.5703E-01
492.95	2.5967E-01
493.30	2.5900E-01
493.64	2.5570E-01
493.99	2.5715E-01
494.34	2.5394E-01
494.68	2.5138E-01
495.03	2.5775E-01
495.37	2.5513E-01
495.72	2.5782E-01
496.07	2.5233E-01
496.41	2.5399E-01
496.76	2.5204E-01
497.11	2.5454E-01
497.45	2.5355E-01
497.80	2.5408E-01
498.14	2.5385E-01
498.49	2.5424E-01
498.84	2.5474E-01
499.18	2.5434E-01
499.53	2.5444E-01
499.87	2.5190E-01
500.22	2.5494E-01
500.56	2.5433E-01
500.91	2.5405E-01
501.26	2.5365E-01
501.60	2.5345E-01
501.95	2.5132E-01
502.29	2.5455E-01
502.64	2.4985E-01
502.98	2.5406E-01
503.33	2.5189E-01
503.67	2.5225E-01
504.02	2.5180E-01
504.36	2.5137E-01
504.71	2.5193E-01
505.06	2.4969E-01
505.40	2.4975E-01
505.75	2.5123E-01
506.09	2.5145E-01
506.44	2.5140E-01
506.78	2.4878E-01
507.13	2.5006E-01
507.47	2.4805E-01
507.82	2.4812E-01
508.16	2.5063E-01
508.51	2.4819E-01
508.85	2.4523E-01
509.19	2.4847E-01
509.54	2.4806E-01
509.88	2.4817E-01
510.23	2.4465E-01
510.57	2.4582E-01
510.92	2.4482E-01
511.26	2.4533E-01
511.61	2.4497E-01
511.95	2.4535E-01
512.30	2.4379E-01
512.64	2.4572E-01
512.98	2.4132E-01
513.33	2.4298E-01
513.67	2.4366E-01
514.02	2.4271E-01
514.36	2.4060E-01
514.70	2.4205E-01
515.05	2.3952E-01
515.39	2.4143E-01
515.74	2.3912E-01
516.08	2.3789E-01
516.42	2.3991E-01
516.77	2.4045E-01
517.11	2.4056E-01
517.46	2.4181E-01
517.80	2.3830E-01
518.14	2.3969E-01
518.49	2.3767E-01
518.83	2.3828E-01
519.17	2.3843E-01
519.52	2.3889E-01
519.86	2.3790E-01
520.20	2.3687E-01
520.55	2.3755E-01
520.89	2.3620E-01
521.23	2.3848E-01
521.58	2.3785E-01
521.92	2.3994E-01
522.26	2.4121E-01
522.61	2.3729E-01
522.95	2.3901E-01
523.29	2.3555E-01
523.64	2.3595E-01
523.98	2.3730E-01
524.32	2.3787E-01
524.66	2.3978E-01
525.01	2.4003E-01
525.35	2.4072E-01
525.69	2.4135E-01
526.04	2.4055E-01
526.38	2.3701E-01
526.72	2.4192E-01
527.06	2.4034E-01
527.41	2.4238E-01
527.75	2.4458E-01
528.09	2.4238E-01
528.43	2.4622E-01
528.78	2.4338E-01
529.12	2.4595E-01
529.46	2.4793E-01
529.80	2.4711E-01
530.15	2.4756E-01
530.49	2.4767E-01
530.83	2.4877E-01
531.17	2.4880E-01
531.51	2.4811E-01
531.86	2.5028E-01
532.20	2.5140E-01
532.54	2.5061E-01
532.88	2.5257E-01
533.22	2.5471E-01
533.57	2.5566E-01
533.91	2.5521E-01
534.25	2.5763E-01
534.59	2.5582E-01
534.93	2.5827E-01
535.27	2.5692E-01
535.62	2.6163E-01
535.96	2.6079E-01
536.30	2.6135E-01
536.64	2.6159E-01
536.98	2.6413E-01
537.32	2.6342E-01
537.66	2.6336E-01
538.01	2.6607E-01
538.35	2.6796E-01
538.69	2.6496E-01
539.03	2.7137E-01
539.37	2.6880E-01
539.71	2.7111E-01
540.05	2.7132E-01
540.39	2.7215E-01
540.73	2.7091E-01
541.07	2.7138E-01
541.42	2.7192E-01
541.76	2.7246E-01
542.10	2.7408E-01
542.44	2.7513E-01
542.78	2.7534E-01
543.12	2.7461E-01
543.46	2.8044E-01
543.80	2.7713E-01
544.14	2.7703E-01
544.48	2.7577E-01
544.82	2.7883E-01
545.16	2.7954E-01
545.50	2.7763E-01
545.84	2.8039E-01
546.18	2.7871E-01
546.52	2.8163E-01
546.86	2.7938E-01
547.20	2.8340E-01
547.54	2.8668E-01
547.88	2.8157E-01
548.22	2.8212E-01
548.56	2.8371E-01
548.90	2.8182E-01
549.24	2.8421E-01
549.58	2.8496E-01
549.92	2.8308E-01
550.26	2.8782E-01
550.60	2.8378E-01
550.94	2.8260E-01
551.28	2.8646E-01
551.62	2.8448E-01
551.96	2.8693E-01
552.30	2.8809E-01
552.64	2.8693E-01
552.98	2.8722E-01
553.32	2.8803E-01
553.66	2.8628E-01
554.00	2.8686E-01
554.34	2.8747E-01
554.68	2.8909E-01
555.02	2.8917E-01
555.36	2.9031E-01
555.69	2.8905E-01
556.03	2.8873E-01
556.37	2.9045E-01
556.71	2.8784E-01
557.05	2.8705E-01
557.39	2.8770E-01
557.73	2.8822E-01
558.07	2.9034E-01
558.41	2.8927E-01
558.75	2.8979E-01
559.08	2.8994E-01
559.42	2.8717E-01
559.76	2.9163E-01
560.10	2.9111E-01
560.44	2.9099E-01
560.78	2.8822E-01
561.12	2.9024E-01
561.45	2.8956E-01
561.79	2.9069E-01
562.13	2.9093E-01
562.47	2.9137E-01
562.81	2.9141E-01
563.15	2.9134E-01
563.48	2.9184E-01
563.82	2.8826E-01
564.16	2.9086E-01
564.50	2.9127E-01
564.84	2.9198E-01
565.17	2.9210E-01
565.51	2.9123E-01
565.85	2.9371E-01
566.19	2.9024E-01
566.52	2.9418E-01
566.86	2.9072E-01
567.20	2.9353E-01
567.54	2.9265E-01
567.88	2.9291E-01
568.21	2.9283E-01
568.55	2.9449E-01
568.89	2.9435E-01
569.23	2.9390E-01
569.56	2.9380E-01
569.90	2.9493E-01
570.24	2.9697E-01
570.57	2.9687E-01
570.91	2.9719E-01
571.25	2.9305E-01
571.59	2.9666E-01
571.92	2.9630E-01
572.26	2.9756E-01
572.60	3.0025E-01
572.93	2.9862E-01
573.27	3.0124E-01
573.61	3.0180E-01
573.95	2.9727E-01
574.28	3.0219E-01
574.62	3.0249E-01
574.96	3.0288E-01
575.29	3.0194E-01
575.63	3.0664E-01
575.97	3.0595E-01
576.30	3.1326E-01
576.64	3.0934E-01
576.98	3.0843E-01
577.31	3.0985E-01
577.65	3.1314E-01
577.98	3.1100E-01
578.32	3.1348E-01
578.66	3.1537E-01
578.99	3.1582E-01
579.33	3.1697E-01
579.67	3.1506E-01
580.00	3.1896E-01
580.34	3.1833E-01
580.67	3.2013E-01
581.01	3.2251E-01
581.35	3.2353E-01
581.68	3.2504E-01
582.02	3.2368E-01
582.35	3.2628E-01
582.69	3.2624E-01
583.02	3.3148E-01
583.36	3.2812E-01
583.70	3.2764E-01
584.03	3.2998E-01
584.37	3.2815E-01
584.70	3.3501E-01
585.04	3.3481E-01
585.37	3.3292E-01
585.71	3.3846E-01
586.04	3.3736E-01
586.38	3.3481E-01
586.72	3.3935E-01
587.05	3.4104E-01
587.39	3.4213E-01
587.72	3.4012E-01
588.06	3.4283E-01
588.39	3.4218E-01
588.73	3.4559E-01
589.06	3.4359E-01
589.40	3.4861E-01
589.73	3.5039E-01
590.07	3.5119E-01
590.40	3.5193E-01
590.73	3.5569E-01
591.07	3.5211E-01
591.40	3.5975E-01
591.74	3.5178E-01
592.07	3.5635E-01
592.41	3.5808E-01
592.74	3.5939E-01
593.08	3.5714E-01
593.41	3.5949E-01
593.75	3.5697E-01
594.08	3.6221E-01
594.41	3.6061E-01
594.75	3.6191E-01
595.08	3.6180E-01
595.42	3.5761E-01
595.75	3.6331E-01
596.09	3.6328E-01
596.42	3.6173E-01
596.75	3.6570E-01
597.09	3.6808E-01
597.42	3.6441E-01
597.75	3.6837E-01
598.09	3.6924E-01
598.42	3.6665E-01
598.76	3.6877E-01
599.09	3.7359E-01
599.42	3.7338E-01
599.76	3.7152E-01
600.09	3.7056E-01
600.42	3.7611E-01
600.76	3.6880E-01
601.09	3.7328E-01
601.42	3.7740E-01
601.76	3.7290E-01
602.09	3.7187E-01
602.42	3.7412E-01
602.76	3.7275E-01
603.09	3.7194E-01
603.42	3.7868E-01
603.76	3.7446E-01
604.09	3.7467E-01
604.42	3.7752E-01
604.76	3.7459E-01
605.09	3.8018E-01
605.42	3.7654E-01
605.75	3.7856E-01
606.09	3.7701E-01
606.42	3.7780E-01
606.75	3.7976E-01
607.09	3.7993E-01
607.42	3.8085E-01
607.75	3.8130E-01
608.08	3.8020E-01
608.42	3.8294E-01
608.75	3.7870E-01
609.08	3.8350E-01
609.41	3.8285E-01
609.75	3.8088E-01
610.08	3.8340E-01
610.41	3.8528E-01
610.74	3.8412E-01
611.07	3.8390E-01
611.41	3.8340E-01
611.74	3.8515E-01
612.07	3.8756E-01
612.40	3.8175E-01
612.73	3.8545E-01
613.07	3.8802E-01
613.40	3.8367E-01
613.73	3.8244E-01
614.06	3.8589E-01
614.39	3.8746E-01
614.72	3.8847E-01
615.06	3.8785E-01
615.39	3.9233E-01
615.72	3.8605E-01
616.05	3.8985E-01
616.38	3.9078E-01
616.71	3.9212E-01
617.05	3.8960E-01
617.38	3.9173E-01
617.71	3.8931E-01
618.04	3.9139E-01
618.37	3.8932E-01
618.70	3.9047E-01
619.03	3.9160E-01
619.36	3.8592E-01
619.69	3.9429E-01
620.03	3.8976E-01
620.36	3.9042E-01
620.69	3.8856E-01
621.02	3.9186E-01
621.35	3.9094E-01
621.68	3.8731E-01
622.01	3.8590E-01
622.34	3.8851E-01
622.67	3.8753E-01
623.00	3.8902E-01
623.33	3.8950E-01
623.66	3.8661E-01
623.99	3.8795E-01
624.32	3.8696E-01
624.65	3.8802E-01
624.99	3.8750E-01
625.32	3.8913E-01
625.65	3.8825E-01
625.98	3.8277E-01
626.31	3.8770E-01
626.64	3.8829E-01
626.97	3.8884E-01
627.30	3.8594E-01
627.63	3.8774E-01
627.96	3.8511E-01
628.29	3.8482E-01
628.62	3.8855E-01
628.95	3.8824E-01
629.28	3.8197E-01
629.61	3.9395E-01
629.94	3.8860E-01
630.26	3.8930E-01
630.59	3.9169E-01
630.92	3.8943E-01
631.25	3.9113E-01
631.58	3.9555E-01
631.91	3.8984E-01
632.24	3.9806E-01
632.57	3.9393E-01
632.90	3.9456E-01
633.23	3.9516E-01
633.56	3.9710E-01
633.89	3.9798E-01
634.22	3.9925E-01
634.55	4.0051E-01
634.88	4.0530E-01
635.20	4.0393E-01
635.53	4.0723E-01
635.86	4.0697E-01
636.19	4.1172E-01
636.52	4.1325E-01
636.85	4.0991E-01
637.18	4.1447E-01
637.51	4.1135E-01
637.83	4.1550E-01
638.16	4.1135E-01
638.49	4.2354E-01
638.82	4.2220E-01
639.15	4.2547E-01
639.48	4.2848E-01
639.81	4.3095E-01
640.13	4.2701E-01
640.46	4.3317E-01
640.79	4.3336E-01
641.12	4.3709E-01
641.45	4.3619E-01
641.77	4.3338E-01
642.10	4.4359E-01
642.43	4.4470E-01
642.76	4.4699E-01
643.09	4.4414E-01
643.41	4.4782E-01
643.74	4.4817E-01
644.07	4.4777E-01
644.40	4.5171E-01
644.73	4.5668E-01
645.05	4.5846E-01
645.38	4.6144E-01
645.71	4.6243E-01
646.04	4.6233E-01
646.36	4.6225E-01
646.69	4.6899E-01
647.02	4.6929E-01
647.35	4.6678E-01
647.67	4.7270E-01
648.00	4.7095E-01
648.33	4.7694E-01
648.66	4.7414E-01
648.98	4.8082E-01
649.31	4.7952E-01
649.64	4.8120E-01
649.96	4.8545E-01
650.29	4.8818E-01
650.62	4.8937E-01
650.94	4.8858E-01
651.27	4.8789E-01
651.60	4.8896E-01
651.92	4.9743E-01
652.25	4.9843E-01
652.58	4.9746E-01
652.90	4.9973E-01
653.23	4.9974E-01
653.56	5.0164E-01
653.88	5.0422E-01
654.21	5.0452E-01
654.54	5.0641E-01
654.86	5.1257E-01
655.19	5.0637E-01
655.52	5.1446E-01
655.84	5.1319E-01
656.17	5.1642E-01
656.49	5.2200E-01
656.82	5.1592E-01
657.15	5.2174E-01
657.47	5.2161E-01
657.80	5.2237E-01
658.13	5.2391E-01
658.45	5.2707E-01
658.78	5.2573E-01
659.10	5.3252E-01
659.43	5.3191E-01
659.75	5.3014E-01
660.08	5.2821E-01
660.41	5.3558E-01
660.73	5.3580E-01
661.06	5.3982E-01
661.38	5.3825E-01
661.71	5.3952E-01
662.03	5.4040E-01
662.36	5.4676E-01
662.68	5.4522E-01
663.01	5.3911E-01
663.33	5.4426E-01
663.66	5.4805E-01
663.98	5.4502E-01
664.31	5.4567E-01
664.63	5.5635E-01
664.96	5.5249E-01
665.28	5.5710E-01
665.61	5.5529E-01
665.93	5.5684E-01
666.26	5.5910E-01
666.58	5.5979E-01
666.91	5.5610E-01
667.23	5.6306E-01
667.56	5.5606E-01
667.88	5.6481E-01
668.21	5.6448E-01
668.53	5.6178E-01
668.86	5.7295E-01
669.18	5.6446E-01
669.50	5.7689E-01
669.83	5.7522E-01
670.15	5.7684E-01
670.48	5.7569E-01
670.80	5.7314E-01
671.13	5.7091E-01
671.45	5.7760E-01
671.77	5.8072E-01
672.10	5.7693E-01
672.42	5.8510E-01
672.75	5.8186E-01
673.07	5.8687E-01
673.39	5.8158E-01
673.72	5.8535E-01
674.04	5.8971E-01
674.37	5.9339E-01
674.69	5.8941E-01
675.01	5.9461E-01
675.34	5.9574E-01
675.66	5.9745E-01
675.98	5.9121E-01
676.31	6.0058E-01
676.63	6.0259E-01
676.95	5.9955E-01
677.28	6.0419E-01
677.60	6.0455E-01
677.92	6.0207E-01
678.25	6.0882E-01
678.57	6.0954E-01
678.89	6.0747E-01
679.22	6.1760E-01
679.54	6.1441E-01
679.86	6.1451E-01
680.18	6.1695E-01
680.51	6.1835E-01
680.83	6.2433E-01
681.15	6.1779E-01
681.48	6.2224E-01
681.80	6.2733E-01
682.12	6.2286E-01
682.44	6.3313E-01
682.77	6.3331E-01
683.09	6.3668E-01
683.41	6.3414E-01
683.73	6.4071E-01
684.06	6.3979E-01
684.38	6.4184E-01
684.70	6.3954E-01
685.02	6.4660E-01
685.34	6.5317E-01
685.67	6.4754E-01
685.99	6.5557E-01
686.31	6.5049E-01
686.63	6.6137E-01
686.96	6.5787E-01
687.28	6.6574E-01
687.60	6.5617E-01
687.92	6.6290E-01
688.24	6.7071E-01
688.56	6.7205E-01
688.89	6.7368E-01
689.21	6.7040E-01
689.53	6.7397E-01
689.85	6.8409E-01
690.17	6.7930E-01
690.49	6.8975E-01
690.82	6.8962E-01
691.14	6.8923E-01
691.46	6.9291E-01
691.78	6.9806E-01
692.10	6.9034E-01
692.42	6.9840E-01
692.74	7.0345E-01
693.06	7.0473E-01
693.39	7.1700E-01
693.71	7.1766E-01
694.03	7.1789E-01
694.35	7.2060E-01
694.67	7.2217E-01
694.99	7.2938E-01
695.31	7.3159E-01
695.63	7.3073E-01
695.95	7.3689E-01
696.27	7.3469E-01
696.59	7.4170E-01
696.91	7.5106E-01
697.23	7.5061E-01
697.56	7.4852E-01
697.88	7.5735E-01
698.20	7.5647E-01
698.52	7.6358E-01
698.84	7.6922E-01
699.16	7.7580E-01
699.48	7.6742E-01
699.80	7.7766E-01
700.12	7.8372E-01
700.44	7.8614E-01
700.76	7.8696E-01
701.08	7.9189E-01
701.40	7.9595E-01
701.72	8.0460E-01
702.04	8.0363E-01
702.36	8.1045E-01
702.68	8.1414E-01
703.00	8.1975E-01
703.32	8.2387E-01
703.64	8.2473E-01
703.96	8.1731E-01
704.28	8.2936E-01
704.60	8.3981E-01
704.91	8.4236E-01
705.23	8.4336E-01
705.55	8.5202E-01
705.87	8.4632E-01
706.19	8.4924E-01
706.51	8.5514E-01
706.83	8.5830E-01
707.15	8.8165E-01
707.47	8.6229E-01
707.79	8.7901E-01
708.11	8.8054E-01
708.43	8.8538E-01
708.74	8.9270E-01
709.06	9.0527E-01
709.38	8.9939E-01
709.70	8.9483E-01
710.02	9.0627E-01
710.34	9.0288E-01
710.66	9.2572E-01
710.98	9.2102E-01
711.29	9.2121E-01
711.61	9.3696E-01
711.93	9.4166E-01
712.25	9.3346E-01
712.57	9.4695E-01
712.89	9.5043E-01
713.20	9.5136E-01
713.52	9.6057E-01
713.84	9.6865E-01
714.16	9.6251E-01
714.48	9.6519E-01
714.80	9.8118E-01
715.11	9.7838E-01
715.43	9.9169E-01
715.75	9.9713E-01
716.07	1.0080E00
716.39	9.8975E-01
716.70	1.0023E00
717.02	9.9720E-01
717.34	1.0276E00
717.66	1.0185E00
717.97	1.0318E00
718.29	1.0406E00
718.61	1.0530E00
718.93	1.0564E00
719.24	1.0625E00
719.56	1.0307E00
719.88	9.0400E-01
720.20	8.2725E-01
720.51	8.4630E-01
720.83	8.7389E-01
721.15	9.2680E-01
721.46	9.8166E-01
721.78	1.0310E00
722.10	1.0755E00
722.42	1.1025E00
722.73	1.1019E00
723.05	1.0726E00
723.37	1.0373E00
723.68	9.8146E-01
724.00	9.3277E-01
724.32	9.1788E-01
724.63	8.9840E-01
724.95	8.7582E-01
725.27	8.6901E-01
725.58	8.7095E-01
725.90	8.8269E-01
726.22	8.6886E-01
726.53	8.5860E-01
726.85	8.7370E-01
727.16	9.1105E-01
727.48	8.6781E-01
727.80	8.3222E-01
728.11	8.2888E-01
728.43	8.4776E-01
728.74	8.6679E-01
729.06	8.2317E-01
729.38	7.9665E-01
729.69	7.9839E-01
730.01	7.9331E-01
730.32	7.9176E-01
730.64	7.8052E-01
730.96	7.6124E-01
731.27	7.6284E-01
731.59	7.4023E-01
731.90	7.5500E-01
732.22	7.8105E-01
732.53	7.9340E-01
732.85	7.9628E-01
733.16	8.0795E-01
733.48	8.0546E-01
733.80	8.1218E-01
734.11	8.2235E-01
734.43	8.1833E-01
734.74	8.0897E-01
735.06	8.0655E-01
735.37	7.9784E-01
735.69	7.9845E-01
736.00	7.7952E-01
736.32	7.6741E-01
736.63	8.6999E-01
736.95	7.5691E-01
737.26	7.6846E-01
737.58	7.6203E-01
737.89	7.7154E-01
738.21	7.7403E-01
738.52	7.6134E-01
738.83	7.5682E-01
739.15	7.5713E-01
739.46	8.2633E-01
739.78	7.6006E-01
740.09	7.7622E-01
740.41	7.8585E-01
740.72	7.9457E-01
741.04	7.7629E-01
741.35	7.8889E-01
741.66	7.7785E-01
741.98	7.8308E-01
742.29	8.0355E-01
742.61	7.9555E-01
742.92	7.9495E-01
743.23	8.1182E-01
743.55	8.2226E-01
743.86	8.1452E-01
744.18	8.3067E-01
744.49	8.3487E-01
744.80	8.3613E-01
745.12	8.3697E-01
745.43	8.4773E-01
745.74	8.4495E-01
746.06	8.4279E-01
746.37	8.5617E-01
746.68	8.6078E-01
747.00	8.5705E-01
747.31	8.7131E-01
747.62	8.5658E-01
747.94	8.5946E-01
748.25	8.7158E-01
748.56	8.6259E-01
748.88	8.6283E-01
749.19	8.5319E-01
749.50	8.6100E-01
749.82	8.6620E-01
750.13	8.5015E-01
750.44	8.7717E-01
750.75	8.5178E-01
751.07	8.6543E-01
751.38	8.6412E-01
751.69	8.6271E-01
752.01	8.6545E-01
752.32	8.7298E-01
752.63	8.8708E-01
752.94	8.7645E-01
753.26	8.7303E-01
753.57	8.8211E-01
753.88	8.8923E-01
754.19	9.3371E-01
754.51	8.8253E-01
754.82	9.6458E-01
755.13	9.0981E-01
755.44	8.8296E-01
755.75	8.9996E-01
756.07	8.9693E-01
756.38	8.8515E-01
756.69	9.1767E-01
757.00	8.9241E-01
757.31	8.9112E-01
757.63	9.1020E-01
757.94	9.0577E-01
758.25	8.9625E-01
758.56	8.9135E-01
758.87	9.0847E-01
759.18	8.4181E-01
759.50	7.5967E-01
759.81	6.6063E-01
760.12	4.8156E-01
760.43	3.8237E-01
760.74	3.2792E-01
761.05	2.9672E-01
761.36	3.2508E-01
761.67	3.9180E-01
761.99	4.2302E-01
762.30	4.6465E-01
762.61	4.5914E-01
762.92	4.3522E-01
763.23	4.3664E-01
763.54	4.3090E-01
763.85	4.5030E-01
764.16	4.5866E-01
764.47	5.8551E-01
764.78	5.1392E-01
765.10	5.9129E-01
765.41	5.7039E-01
765.72	6.7373E-01
766.03	6.3834E-01
766.34	6.7158E-01
766.65	7.1070E-01
766.96	8.0678E-01
767.27	7.8105E-01
767.58	8.1248E-01
767.89	8.5069E-01
768.20	8.7801E-01
768.51	8.7673E-01
768.82	8.8412E-01
769.13	9.3083E-01
769.44	9.0513E-01
769.75	9.2980E-01
770.06	9.2205E-01
770.37	9.3462E-01
770.68	9.5678E-01
770.99	9.4936E-01
771.30	9.4607E-01
771.61	9.5782E-01
771.92	9.7005E-01
772.23	9.8501E-01
772.54	9.7869E-01
772.85	9.7632E-01
773.16	9.7503E-01
773.47	1.0053E00
773.78	1.0043E00
774.09	1.0234E00
774.39	1.0194E00
774.70	9.8370E-01
775.01	1.0073E00
775.32	9.9688E-01
775.63	1.0363E00
775.94	1.0091E00
776.25	1.0070E00
776.56	1.0149E00
776.87	1.0200E00
777.18	1.0283E00
777.48	1.0504E00
777.79	1.0207E00
778.10	1.0580E00
778.41	1.0587E00
778.72	1.0452E00
779.03	1.0491E00
779.34	1.0744E00
779.65	1.0581E00
779.95	1.0771E00
780.26	1.0480E00
780.57	1.1012E00
780.88	1.0796E00
781.19	1.0887E00
781.50	1.0909E00
781.80	1.0727E00
782.11	1.0847E00
782.42	1.0878E00
782.73	1.0968E00
783.04	1.1060E00
783.34	1.1007E00
783.65	1.0866E00
783.96	1.1143E00
784.27	1.0974E00
784.57	1.1261E00
784.88	1.1056E00
785.19	1.1458E00
785.50	1.1405E00
785.81	1.1232E00
786.11	1.1180E00
786.42	1.0998E00
786.73	1.1176E00
787.04	1.1703E00
787.34	1.1163E00
787.65	1.1091E00
787.96	1.1237E00
788.26	1.1089E00
788.57	1.1447E00
788.88	1.1017E00
789.19	1.0974E00
789.49	1.1107E00
789.80	1.1533E00
790.11	1.1122E00
790.41	1.1101E00
790.72	1.1536E00
791.03	1.1028E00
791.33	1.1160E00
791.64	1.1338E00
791.95	1.1298E00
792.25	1.1684E00
792.56	1.1259E00
792.87	1.1908E00
793.17	1.1332E00
793.48	1.1846E00
793.79	1.1982E00
794.09	1.2129E00
794.40	1.2383E00
794.70	1.2245E00
795.01	1.2501E00
795.32	1.1970E00
795.62	1.2519E00
795.93	1.1827E00
796.23	1.2028E00
796.54	1.1701E00
796.85	1.1958E00
797.15	1.1886E00
797.46	1.2098E00
797.76	1.2324E00
798.07	1.2837E00
798.37	1.2717E00
798.68	1.2663E00
798.99	1.2554E00
799.29	1.2581E00
799.60	1.2804E00
799.90	1.2498E00
800.21	1.2358E00
800.51	1.2294E00
800.82	1.2892E00
801.12	1.2754E00
801.43	1.2764E00
801.73	1.2566E00
802.04	1.2458E00
802.34	1.2348E00
802.65	1.2676E00
802.95	1.2622E00
803.26	1.2871E00
803.56	1.2457E00
803.87	1.2583E00
804.17	1.2516E00
804.48	1.2515E00
804.78	1.3172E00
805.09	1.2773E00
805.39	1.3097E00
805.70	1.3277E00
806.00	1.3160E00
806.30	1.3572E00
806.61	1.3295E00
806.91	1.3578E00
807.22	1.3925E00
807.52	1.3772E00
807.83	1.3318E00
808.13	1.3833E00
808.43	1.3380E00
808.74	1.3972E00
809.04	1.3284E00
809.35	1.3040E00
809.65	1.3457E00
809.95	1.2989E00
810.26	1.2660E00
810.56	1.2916E00
810.86	1.3154E00
811.17	1.2762E00
811.47	1.2691E00
811.77	1.2332E00
812.08	1.2042E00
812.38	1.2206E00
812.69	1.1880E00
812.99	1.2123E00
813.29	1.1456E00
813.59	1.1122E00
813.90	1.1229E00
814.20	1.0864E00
814.50	1.0811E00
814.81	1.0531E00
815.11	1.0400E00
815.41	9.7211E-01
815.72	9.5894E-01
816.02	9.2328E-01
816.32	9.0232E-01
816.62	8.9309E-01
816.93	9.2847E-01
817.23	9.1642E-01
817.53	9.0633E-01
817.84	8.9637E-01
818.14	8.8958E-01
818.44	9.2509E-01
818.74	9.9999E-01
819.04	9.2069E-01
819.35	9.0807E-01
819.65	9.1805E-01
819.95	9.3296E-01
820.25	9.5167E-01
820.56	1.0044E00
820.86	1.0329E00
821.16	1.0977E00
821.46	1.0323E00
821.76	1.0454E00
822.07	1.1323E00
822.37	1.0339E00
822.67	1.1325E00
822.97	1.0352E00
823.27	9.0883E-01
823.57	8.6059E-01
823.88	8.6979E-01
824.18	8.8537E-01
824.48	8.9909E-01
824.78	9.0831E-01
825.08	9.9324E-01
825.38	1.0132E00
825.69	9.3453E-01
825.99	9.3891E-01
826.29	9.6528E-01
826.59	9.4915E-01
826.89	9.5188E-01
827.19	1.0816E00
827.49	9.6578E-01
827.79	8.9938E-01
828.09	8.6212E-01
828.39	8.6749E-01
828.70	8.6530E-01
829.00	8.9324E-01
829.30	8.1422E-01
829.60	8.0953E-01
829.90	8.6240E-01
830.20	7.8452E-01
830.50	7.9470E-01
830.80	8.3101E-01
831.10	7.8853E-01
831.40	8.2897E-01
831.70	8.1420E-01
832.00	8.2409E-01
832.30	7.5676E-01
832.60	7.7079E-01
832.90	7.3986E-01
833.20	7.7132E-01
833.50	7.2815E-01
833.80	7.4099E-01
834.10	7.2320E-01
834.40	8.0291E-01
834.70	7.9097E-01
835.00	7.4458E-01
835.30	7.3007E-01
835.60	7.3490E-01
835.90	7.2377E-01
836.20	7.6553E-01
836.50	7.4963E-01
836.80	8.7376E-01
837.10	1.1666E00
837.40	8.3863E-01
837.70	8.7691E-01
838.00	7.3889E-01
838.30	8.0409E-01
838.60	8.4209E-01
838.90	8.2077E-01
839.19	1.0689E00
839.49	7.8068E-01
839.79	8.3225E-01
840.09	7.8304E-01
840.39	8.4881E-01
840.69	8.3996E-01
840.99	1.0218E00
841.29	8.7956E-01
841.59	7.8034E-01
841.88	8.0088E-01
842.18	8.6232E-01
842.48	8.0748E-01
842.78	7.8156E-01
843.08	7.8276E-01
843.38	7.7816E-01
843.68	9.3270E-01
843.97	9.3484E-01
844.27	8.5828E-01
844.57	8.0092E-01
844.87	8.1633E-01
845.17	8.1009E-01
845.47	7.7483E-01
845.76	8.6881E-01
846.06	9.0179E-01
846.36	1.2804E00
846.66	8.4025E-01
846.96	8.9125E-01
847.25	8.1030E-01
847.55	7.7913E-01
847.85	8.3377E-01
848.15	8.1543E-01
848.44	8.0779E-01
848.74	8.0475E-01
849.04	8.0308E-01
849.34	8.8113E-01
849.63	8.1257E-01
849.93	8.0943E-01
850.23	8.3112E-01
850.53	7.6477E-01
850.82	8.0111E-01
851.12	7.8151E-01
851.42	8.5355E-01
851.71	8.5112E-01
852.01	8.2016E-01
852.31	8.6523E-01
852.61	8.0936E-01
852.90	8.0247E-01
853.20	9.2038E-01
853.50	1.1537E00
853.79	1.0590E00
854.09	8.4614E-01
854.39	7.8284E-01
854.68	8.0808E-01
854.98	8.1141E-01
855.28	8.8225E-01
855.57	1.0032E00
855.87	9.1422E-01
856.17	9.1728E-01
856.46	8.0936E-01
856.76	8.1942E-01
857.05	9.3613E-01
857.35	8.5196E-01
857.65	1.0402E00
857.94	9.4526E-01
858.24	1.0203E00
858.53	8.7808E-01
858.83	1.3300E00
859.13	8.9723E-01
859.42	9.0226E-01
859.72	1.0224E00
860.01	9.2391E-01
860.31	8.9786E-01
860.60	8.9204E-01
860.90	1.0437E00
861.20	9.0666E-01
861.49	8.9120E-01
861.79	9.3505E-01
862.08	1.9160E00
862.38	1.2363E00
862.67	9.2992E-01
862.97	9.3392E-01
863.26	9.4154E-01
863.56	1.1107E00
863.85	1.2760E00
864.15	9.1262E-01
864.44	9.8907E-01
864.74	9.5362E-01
865.03	1.2065E00
865.33	1.1087E00
865.62	9.6756E-01
865.92	9.1885E-01
866.21	9.9308E-01
866.51	9.7370E-01
866.80	1.1620E00
867.10	1.3119E00
867.39	1.0899E00
867.69	1.2915E00
867.98	9.4395E-01
868.27	9.5296E-01
868.57	9.4083E-01
868.86	1.1494E00
869.16	9.9177E-01
869.45	1.0019E00
869.75	1.0100E00
870.04	1.0402E00
870.33	1.1441E00
870.63	1.0217E00
870.92	1.0453E00
871.22	1.9799E00
871.51	1.0449E00
871.80	1.2102E00
872.10	1.2102E00
>>>>>End Processed Spectral Data<<<<<
