SpectraSuite Data File
++++++++++++++++++++++++++++++++++++
Date: Sat May 16 09:10:27 PDT 2015
User: schluterlab
Dark Spectrum Present: Yes
Reference Spectrum Present: No
Number of Sampled Component Spectra: 1
Spectrometers: USB2E3373
Integration Time (usec): 2300000 (USB2E3373)
Spectra Averaged: 3 (USB2E3373)
Boxcar Smoothing: 0 (USB2E3373)
Correct for Electrical Dark: No (USB2E3373)
Strobe/Lamp Enabled: No (USB2E3373)
Correct for Detector Non-linearity: No (USB2E3373)
Correct for Stray Light: No (USB2E3373)
Number of Pixels in Processed Spectrum: 2048
>>>>>Begin Processed Spectral Data<<<<<
178.53	-0.0000E00
178.91	-0.0000E00
179.29	-0.0000E00
179.67	-0.0000E00
180.04	-0.0000E00
180.42	0.0000E00
180.80	0.0000E00
181.18	-0.0000E00
181.56	0.0000E00
181.94	-0.0000E00
182.31	-0.0000E00
182.69	-0.0000E00
183.07	0.0000E00
183.45	-0.0000E00
183.83	-0.0000E00
184.20	-0.0000E00
184.58	0.0000E00
184.96	-0.0000E00
185.34	-0.0000E00
185.72	-0.0000E00
186.09	-0.0000E00
186.47	0.0000E00
186.85	-0.0000E00
187.23	-0.0000E00
187.61	0.0000E00
187.98	0.0000E00
188.36	0.0000E00
188.74	0.0000E00
189.12	0.0000E00
189.49	0.0000E00
189.87	0.0000E00
190.25	0.0000E00
190.63	0.0000E00
191.00	0.0000E00
191.38	0.0000E00
191.76	0.0000E00
192.14	0.0000E00
192.51	0.0000E00
192.89	0.0000E00
193.27	0.0000E00
193.65	0.0000E00
194.02	0.0000E00
194.40	0.0000E00
194.78	0.0000E00
195.15	0.0000E00
195.53	0.0000E00
195.91	0.0000E00
196.29	0.0000E00
196.66	0.0000E00
197.04	0.0000E00
197.42	0.0000E00
197.79	0.0000E00
198.17	0.0000E00
198.55	0.0000E00
198.92	0.0000E00
199.30	0.0000E00
199.68	0.0000E00
200.05	0.0000E00
200.43	0.0000E00
200.81	0.0000E00
201.18	0.0000E00
201.56	0.0000E00
201.94	0.0000E00
202.31	0.0000E00
202.69	0.0000E00
203.07	0.0000E00
203.44	0.0000E00
203.82	0.0000E00
204.19	0.0000E00
204.57	0.0000E00
204.95	0.0000E00
205.32	0.0000E00
205.70	0.0000E00
206.08	0.0000E00
206.45	0.0000E00
206.83	0.0000E00
207.20	0.0000E00
207.58	0.0000E00
207.96	0.0000E00
208.33	0.0000E00
208.71	0.0000E00
209.08	0.0000E00
209.46	0.0000E00
209.84	0.0000E00
210.21	0.0000E00
210.59	0.0000E00
210.96	0.0000E00
211.34	0.0000E00
211.71	0.0000E00
212.09	0.0000E00
212.46	0.0000E00
212.84	0.0000E00
213.22	-0.0000E00
213.59	0.0000E00
213.97	0.0000E00
214.34	0.0000E00
214.72	0.0000E00
215.09	0.0000E00
215.47	0.0000E00
215.84	0.0000E00
216.22	0.0000E00
216.59	0.0000E00
216.97	0.0000E00
217.34	0.0000E00
217.72	0.0000E00
218.09	0.0000E00
218.47	0.0000E00
218.84	-0.0000E00
219.22	0.0000E00
219.59	0.0000E00
219.97	0.0000E00
220.34	0.0000E00
220.72	0.0000E00
221.09	0.0000E00
221.47	0.0000E00
221.84	0.0000E00
222.22	0.0000E00
222.59	0.0000E00
222.97	0.0000E00
223.34	0.0000E00
223.72	0.0000E00
224.09	0.0000E00
224.46	0.0000E00
224.84	0.0000E00
225.21	0.0000E00
225.59	0.0000E00
225.96	0.0000E00
226.34	0.0000E00
226.71	0.0000E00
227.08	0.0000E00
227.46	0.0000E00
227.83	0.0000E00
228.21	0.0000E00
228.58	0.0000E00
228.95	0.0000E00
229.33	0.0000E00
229.70	0.0000E00
230.08	0.0000E00
230.45	0.0000E00
230.82	0.0000E00
231.20	0.0000E00
231.57	0.0000E00
231.95	0.0000E00
232.32	0.0000E00
232.69	0.0000E00
233.07	0.0000E00
233.44	0.0000E00
233.81	0.0000E00
234.19	0.0000E00
234.56	0.0000E00
234.93	0.0000E00
235.31	0.0000E00
235.68	0.0000E00
236.05	0.0000E00
236.43	0.0000E00
236.80	0.0000E00
237.17	0.0000E00
237.55	0.0000E00
237.92	0.0000E00
238.29	0.0000E00
238.67	0.0000E00
239.04	0.0000E00
239.41	0.0000E00
239.79	0.0000E00
240.16	0.0000E00
240.53	0.0000E00
240.91	0.0000E00
241.28	0.0000E00
241.65	0.0000E00
242.02	0.0000E00
242.40	0.0000E00
242.77	0.0000E00
243.14	0.0000E00
243.51	0.0000E00
243.89	0.0000E00
244.26	0.0000E00
244.63	0.0000E00
245.00	0.0000E00
245.38	0.0000E00
245.75	0.0000E00
246.12	0.0000E00
246.49	0.0000E00
246.87	0.0000E00
247.24	0.0000E00
247.61	0.0000E00
247.98	0.0000E00
248.36	0.0000E00
248.73	0.0000E00
249.10	0.0000E00
249.47	0.0000E00
249.84	0.0000E00
250.22	0.0000E00
250.59	0.0000E00
250.96	0.0000E00
251.33	0.0000E00
251.70	0.0000E00
252.08	0.0000E00
252.45	0.0000E00
252.82	0.0000E00
253.19	0.0000E00
253.56	0.0000E00
253.94	0.0000E00
254.31	0.0000E00
254.68	0.0000E00
255.05	0.0000E00
255.42	0.0000E00
255.79	0.0000E00
256.16	0.0000E00
256.54	0.0000E00
256.91	0.0000E00
257.28	0.0000E00
257.65	0.0000E00
258.02	0.0000E00
258.39	0.0000E00
258.76	0.0000E00
259.14	0.0000E00
259.51	0.0000E00
259.88	0.0000E00
260.25	0.0000E00
260.62	0.0000E00
260.99	0.0000E00
261.36	0.0000E00
261.73	0.0000E00
262.10	0.0000E00
262.47	0.0000E00
262.85	0.0000E00
263.22	0.0000E00
263.59	0.0000E00
263.96	0.0000E00
264.33	0.0000E00
264.70	0.0000E00
265.07	0.0000E00
265.44	0.0000E00
265.81	0.0000E00
266.18	0.0000E00
266.55	0.0000E00
266.92	0.0000E00
267.29	0.0000E00
267.66	0.0000E00
268.03	0.0000E00
268.40	0.0000E00
268.77	0.0000E00
269.14	0.0000E00
269.51	0.0000E00
269.88	0.0000E00
270.25	0.0000E00
270.62	0.0000E00
270.99	0.0000E00
271.36	0.0000E00
271.73	0.0000E00
272.10	0.0000E00
272.47	0.0000E00
272.84	0.0000E00
273.21	0.0000E00
273.58	0.0000E00
273.95	0.0000E00
274.32	0.0000E00
274.69	0.0000E00
275.06	0.0000E00
275.43	0.0000E00
275.80	0.0000E00
276.17	0.0000E00
276.54	0.0000E00
276.91	0.0000E00
277.28	0.0000E00
277.65	0.0000E00
278.02	0.0000E00
278.39	0.0000E00
278.76	0.0000E00
279.13	0.0000E00
279.50	0.0000E00
279.87	0.0000E00
280.23	0.0000E00
280.60	0.0000E00
280.97	0.0000E00
281.34	0.0000E00
281.71	0.0000E00
282.08	0.0000E00
282.45	0.0000E00
282.82	0.0000E00
283.19	0.0000E00
283.56	0.0000E00
283.92	0.0000E00
284.29	0.0000E00
284.66	0.0000E00
285.03	0.0000E00
285.40	0.0000E00
285.77	0.0000E00
286.14	0.0000E00
286.51	0.0000E00
286.87	0.0000E00
287.24	0.0000E00
287.61	0.0000E00
287.98	0.0000E00
288.35	0.0000E00
288.72	0.0000E00
289.08	0.0000E00
289.45	0.0000E00
289.82	0.0000E00
290.19	0.0000E00
290.56	0.0000E00
290.93	0.0000E00
291.29	0.0000E00
291.66	0.0000E00
292.03	0.0000E00
292.40	0.0000E00
292.77	0.0000E00
293.13	0.0000E00
293.50	0.0000E00
293.87	0.0000E00
294.24	0.0000E00
294.60	0.0000E00
294.97	0.0000E00
295.34	0.0000E00
295.71	0.0000E00
296.08	0.0000E00
296.44	0.0000E00
296.81	0.0000E00
297.18	0.0000E00
297.55	0.0000E00
297.91	0.0000E00
298.28	0.0000E00
298.65	0.0000E00
299.02	0.0000E00
299.38	0.0000E00
299.75	0.0000E00
300.12	2.5899E-01
300.48	6.1087E-02
300.85	7.6989E-02
301.22	7.8571E-02
301.59	8.5871E-02
301.95	1.2468E-01
302.32	1.3032E-01
302.69	4.2913E-02
303.05	4.4178E-02
303.42	7.9908E-02
303.79	6.8688E-02
304.15	1.4378E-01
304.52	9.7398E-02
304.89	1.0806E-01
305.25	7.8131E-02
305.62	6.6195E-02
305.99	2.7223E-01
306.35	6.7736E-02
306.72	9.3461E-02
307.09	1.2660E-01
307.45	9.1106E-02
307.82	9.1680E-02
308.19	8.4569E-02
308.55	8.5244E-02
308.92	1.9299E-01
309.29	1.1882E-01
309.65	1.7930E-01
310.02	8.4021E-02
310.38	5.4793E-02
310.75	1.7314E-01
311.12	5.8578E-02
311.48	1.1422E-01
311.85	1.0514E-01
312.22	6.7327E-02
312.58	6.9112E-02
312.95	1.1184E-01
313.31	1.1520E-01
313.68	8.4000E-02
314.05	1.1287E-01
314.41	1.6279E-01
314.78	8.6765E-02
315.14	1.8667E-01
315.51	1.9134E-01
315.87	9.9636E-02
316.24	9.8650E-02
316.61	1.7965E-01
316.97	1.6644E-01
317.34	1.5748E-01
317.70	2.5189E-01
318.07	2.0527E-01
318.43	1.6310E-01
318.80	2.3278E-01
319.16	2.0435E-01
319.53	2.7704E-01
319.89	1.5946E-01
320.26	1.4468E-01
320.62	3.2407E-01
320.99	1.3081E-01
321.35	2.1090E-01
321.72	1.8982E-01
322.08	1.8696E-01
322.45	1.9167E-01
322.81	3.5410E-01
323.18	2.5548E-01
323.54	1.6531E-01
323.91	1.6451E-01
324.27	1.4519E-01
324.64	2.9460E-01
325.00	2.8065E-01
325.37	1.6459E-01
325.73	2.7345E-01
326.10	2.8338E-01
326.46	2.5421E-01
326.83	6.6373E-01
327.19	4.6871E-01
327.56	2.9882E-01
327.92	4.0829E-01
328.29	4.0350E-01
328.65	2.9313E-01
329.01	3.1341E-01
329.38	3.6356E-01
329.74	3.5720E-01
330.11	2.6246E-01
330.47	3.9148E-01
330.84	4.9425E-01
331.20	5.8644E-01
331.56	4.2311E-01
331.93	4.0068E-01
332.29	6.0350E-01
332.66	2.3061E-01
333.02	4.9874E-01
333.38	2.9403E-01
333.75	3.3557E-01
334.11	5.4404E-01
334.48	3.2798E-01
334.84	3.6031E-01
335.20	3.6830E-01
335.57	3.9765E-01
335.93	9.7120E-01
336.29	8.2408E-01
336.66	3.4085E-01
337.02	7.3535E-01
337.38	2.5569E-01
337.75	3.2373E-01
338.11	3.8803E-01
338.47	2.9933E-01
338.84	3.4775E-01
339.20	3.5309E-01
339.56	3.8583E-01
339.93	4.4804E-01
340.29	5.2326E-01
340.65	3.4027E-01
341.02	6.4902E-01
341.38	4.8122E-01
341.74	6.9549E-01
342.11	4.9026E-01
342.47	4.0669E-01
342.83	6.6789E-01
343.20	3.9210E-01
343.56	3.6680E-01
343.92	6.0994E-01
344.28	4.2341E-01
344.65	5.6905E-01
345.01	3.7507E-01
345.37	6.4353E-01
345.73	4.5477E-01
346.10	3.6244E-01
346.46	4.6463E-01
346.82	5.3507E-01
347.19	5.5854E-01
347.55	4.7599E-01
347.91	4.9283E-01
348.27	5.3056E-01
348.63	6.0184E-01
349.00	4.1309E-01
349.36	3.8587E-01
349.72	4.4207E-01
350.08	6.9884E-01
350.45	6.0142E-01
350.81	6.2451E-01
351.17	4.6095E-01
351.53	5.8163E-01
351.89	6.2839E-01
352.26	5.4232E-01
352.62	5.8233E-01
352.98	4.6563E-01
353.34	4.1718E-01
353.70	5.6145E-01
354.07	5.4548E-01
354.43	6.1301E-01
354.79	5.8643E-01
355.15	4.4688E-01
355.51	6.6973E-01
355.87	6.2289E-01
356.24	4.4260E-01
356.60	6.2556E-01
356.96	5.3673E-01
357.32	4.8851E-01
357.68	4.7794E-01
358.04	4.5707E-01
358.40	4.0772E-01
358.77	4.7303E-01
359.13	4.6179E-01
359.49	6.3334E-01
359.85	6.6983E-01
360.21	5.2314E-01
360.57	5.2153E-01
360.93	5.6004E-01
361.29	5.6496E-01
361.66	6.0475E-01
362.02	4.9719E-01
362.38	5.6548E-01
362.74	5.6447E-01
363.10	7.3662E-01
363.46	6.8651E-01
363.82	7.0343E-01
364.18	6.4213E-01
364.54	6.7939E-01
364.90	5.7340E-01
365.26	6.0231E-01
365.62	6.9840E-01
365.98	6.9630E-01
366.35	7.2717E-01
366.71	6.0009E-01
367.07	9.9970E-01
367.43	8.7579E-01
367.79	7.6351E-01
368.15	7.2254E-01
368.51	8.3227E-01
368.87	7.4652E-01
369.23	8.9041E-01
369.59	7.1894E-01
369.95	1.0550E00
370.31	8.5089E-01
370.67	8.7026E-01
371.03	7.2434E-01
371.39	7.2824E-01
371.75	9.4705E-01
372.11	8.3894E-01
372.47	6.9744E-01
372.83	8.1213E-01
373.19	8.0944E-01
373.55	7.0527E-01
373.91	7.8423E-01
374.27	5.8500E-01
374.63	6.5994E-01
374.99	6.3122E-01
375.35	7.3557E-01
375.71	7.4947E-01
376.07	7.4254E-01
376.42	8.5026E-01
376.78	8.0883E-01
377.14	7.7751E-01
377.50	9.4722E-01
377.86	9.2185E-01
378.22	1.1449E00
378.58	9.3108E-01
378.94	1.0276E00
379.30	8.3025E-01
379.66	8.8603E-01
380.02	9.2624E-01
380.38	8.2404E-01
380.74	9.5283E-01
381.09	9.5727E-01
381.45	8.8422E-01
381.81	8.7161E-01
382.17	7.7039E-01
382.53	6.7950E-01
382.89	6.1029E-01
383.25	6.6336E-01
383.61	6.4491E-01
383.97	6.7055E-01
384.32	7.1645E-01
384.68	7.5922E-01
385.04	8.2173E-01
385.40	8.6091E-01
385.76	7.0439E-01
386.12	8.3126E-01
386.48	7.5268E-01
386.83	8.3892E-01
387.19	8.3838E-01
387.55	9.1315E-01
387.91	8.9017E-01
388.27	8.0572E-01
388.62	7.9599E-01
388.98	8.3098E-01
389.34	8.7245E-01
389.70	8.7140E-01
390.06	8.6250E-01
390.42	8.4310E-01
390.77	8.1816E-01
391.13	8.7028E-01
391.49	8.4376E-01
391.85	9.1839E-01
392.20	8.3983E-01
392.56	8.7245E-01
392.92	8.3291E-01
393.28	8.3373E-01
393.64	8.6348E-01
393.99	8.8969E-01
394.35	7.6734E-01
394.71	8.5983E-01
395.07	8.6428E-01
395.42	8.2719E-01
395.78	8.1350E-01
396.14	8.1691E-01
396.50	7.6460E-01
396.85	8.8728E-01
397.21	9.2113E-01
397.57	8.3368E-01
397.92	8.5155E-01
398.28	7.6030E-01
398.64	8.0870E-01
399.00	7.7356E-01
399.35	7.6356E-01
399.71	8.1135E-01
400.07	8.0397E-01
400.42	8.0778E-01
400.78	7.7762E-01
401.14	7.7194E-01
401.49	7.7830E-01
401.85	7.7869E-01
402.21	7.0620E-01
402.57	7.3858E-01
402.92	7.9638E-01
403.28	7.9352E-01
403.63	7.7849E-01
403.99	8.0349E-01
404.35	7.4426E-01
404.70	7.4971E-01
405.06	7.3847E-01
405.42	7.9187E-01
405.77	7.2342E-01
406.13	7.0326E-01
406.49	6.7481E-01
406.84	6.9498E-01
407.20	7.4110E-01
407.55	7.6354E-01
407.91	7.7359E-01
408.27	7.0422E-01
408.62	6.8866E-01
408.98	7.1865E-01
409.34	7.0544E-01
409.69	7.4329E-01
410.05	6.9435E-01
410.40	7.0068E-01
410.76	6.7472E-01
411.11	7.0029E-01
411.47	7.1736E-01
411.83	6.8310E-01
412.18	6.8170E-01
412.54	6.7788E-01
412.89	6.9452E-01
413.25	6.4728E-01
413.60	6.6828E-01
413.96	7.1176E-01
414.31	6.7106E-01
414.67	7.0005E-01
415.03	7.0801E-01
415.38	7.3795E-01
415.74	7.0664E-01
416.09	6.9887E-01
416.45	7.2303E-01
416.80	6.9439E-01
417.16	6.9368E-01
417.51	6.8488E-01
417.87	7.0499E-01
418.22	6.6057E-01
418.58	6.8196E-01
418.93	6.3903E-01
419.29	6.7518E-01
419.64	6.4376E-01
420.00	6.6321E-01
420.35	6.5574E-01
420.71	6.3163E-01
421.06	6.5611E-01
421.42	6.8941E-01
421.77	6.4839E-01
422.12	6.6185E-01
422.48	6.3842E-01
422.83	6.6762E-01
423.19	6.3169E-01
423.54	6.5547E-01
423.90	6.3828E-01
424.25	6.2704E-01
424.61	6.5677E-01
424.96	6.2707E-01
425.31	6.0787E-01
425.67	6.0226E-01
426.02	6.1468E-01
426.38	6.1493E-01
426.73	6.0587E-01
427.09	6.1566E-01
427.44	5.8537E-01
427.79	6.0069E-01
428.15	6.0426E-01
428.50	6.1162E-01
428.85	6.2952E-01
429.21	5.6924E-01
429.56	5.7840E-01
429.92	5.7196E-01
430.27	5.8821E-01
430.62	6.0593E-01
430.98	6.1246E-01
431.33	5.9445E-01
431.68	5.8232E-01
432.04	5.7475E-01
432.39	5.7461E-01
432.74	5.9876E-01
433.10	5.5407E-01
433.45	5.9265E-01
433.80	5.8079E-01
434.16	5.7515E-01
434.51	5.6852E-01
434.86	5.8693E-01
435.22	5.5975E-01
435.57	6.1042E-01
435.92	5.8625E-01
436.28	5.5166E-01
436.63	5.5792E-01
436.98	5.6118E-01
437.34	5.8295E-01
437.69	5.6062E-01
438.04	5.4109E-01
438.39	5.8096E-01
438.75	5.6525E-01
439.10	5.4979E-01
439.45	5.7660E-01
439.81	5.7845E-01
440.16	5.4502E-01
440.51	5.5716E-01
440.86	5.8496E-01
441.22	5.6042E-01
441.57	5.4008E-01
441.92	5.3947E-01
442.27	5.5607E-01
442.63	5.4802E-01
442.98	5.7729E-01
443.33	5.6741E-01
443.68	5.3271E-01
444.03	5.2490E-01
444.39	5.1845E-01
444.74	5.6263E-01
445.09	5.6592E-01
445.44	5.5712E-01
445.79	5.0874E-01
446.15	5.4267E-01
446.50	5.4816E-01
446.85	5.1636E-01
447.20	5.1420E-01
447.55	5.4074E-01
447.91	5.3671E-01
448.26	5.4636E-01
448.61	5.3379E-01
448.96	5.1643E-01
449.31	5.2703E-01
449.66	5.3434E-01
450.02	5.3076E-01
450.37	5.3274E-01
450.72	5.2024E-01
451.07	5.6218E-01
451.42	5.6545E-01
451.77	5.3500E-01
452.12	5.2607E-01
452.47	5.6008E-01
452.83	5.1968E-01
453.18	5.3492E-01
453.53	5.3016E-01
453.88	4.9367E-01
454.23	5.0416E-01
454.58	4.9941E-01
454.93	5.1187E-01
455.28	5.1179E-01
455.63	5.0196E-01
455.98	4.9543E-01
456.34	5.2145E-01
456.69	5.1109E-01
457.04	5.1195E-01
457.39	4.8370E-01
457.74	4.8939E-01
458.09	4.9007E-01
458.44	4.8283E-01
458.79	4.7175E-01
459.14	4.7450E-01
459.49	5.0074E-01
459.84	4.7977E-01
460.19	5.0423E-01
460.54	5.1606E-01
460.89	4.6846E-01
461.24	5.0476E-01
461.59	4.8760E-01
461.94	4.9894E-01
462.29	4.5938E-01
462.64	4.9173E-01
462.99	4.9945E-01
463.34	5.1871E-01
463.69	4.7814E-01
464.04	4.5825E-01
464.39	4.6438E-01
464.74	4.8180E-01
465.09	4.9572E-01
465.44	4.6131E-01
465.79	4.7682E-01
466.14	4.7503E-01
466.49	4.7117E-01
466.84	4.6970E-01
467.19	4.7536E-01
467.54	4.7362E-01
467.89	4.6132E-01
468.24	4.4161E-01
468.59	4.4901E-01
468.94	4.4916E-01
469.29	4.4674E-01
469.64	4.5828E-01
469.99	4.5000E-01
470.34	4.2952E-01
470.68	4.6331E-01
471.03	4.3971E-01
471.38	4.3528E-01
471.73	4.2515E-01
472.08	4.1809E-01
472.43	4.0479E-01
472.78	4.2940E-01
473.13	4.2634E-01
473.48	4.1553E-01
473.83	4.0476E-01
474.17	4.2118E-01
474.52	4.0824E-01
474.87	3.9375E-01
475.22	4.0102E-01
475.57	3.7991E-01
475.92	3.6609E-01
476.27	3.8903E-01
476.61	3.7297E-01
476.96	3.6819E-01
477.31	3.4730E-01
477.66	3.5929E-01
478.01	3.5258E-01
478.36	3.5259E-01
478.70	3.4515E-01
479.05	3.4746E-01
479.40	3.3953E-01
479.75	3.4067E-01
480.10	3.3245E-01
480.45	3.2794E-01
480.79	3.2567E-01
481.14	3.3132E-01
481.49	3.2627E-01
481.84	3.1653E-01
482.19	3.0956E-01
482.53	3.1587E-01
482.88	3.1013E-01
483.23	3.0610E-01
483.58	3.0209E-01
483.92	3.0911E-01
484.27	2.9663E-01
484.62	2.9676E-01
484.97	2.9068E-01
485.31	2.8712E-01
485.66	2.9215E-01
486.01	2.9288E-01
486.36	2.8262E-01
486.70	2.8733E-01
487.05	2.8627E-01
487.40	2.8299E-01
487.75	2.7812E-01
488.09	2.7759E-01
488.44	2.8109E-01
488.79	2.7890E-01
489.13	2.7475E-01
489.48	2.7518E-01
489.83	2.7764E-01
490.17	2.6962E-01
490.52	2.6869E-01
490.87	2.6996E-01
491.22	2.7307E-01
491.56	2.7209E-01
491.91	2.7430E-01
492.26	2.7208E-01
492.60	2.7118E-01
492.95	2.7304E-01
493.30	2.7235E-01
493.64	2.6929E-01
493.99	2.7368E-01
494.34	2.6958E-01
494.68	2.6559E-01
495.03	2.7080E-01
495.37	2.6710E-01
495.72	2.7111E-01
496.07	2.6486E-01
496.41	2.6804E-01
496.76	2.6756E-01
497.11	2.6880E-01
497.45	2.6843E-01
497.80	2.6949E-01
498.14	2.6585E-01
498.49	2.7046E-01
498.84	2.6804E-01
499.18	2.6898E-01
499.53	2.6807E-01
499.87	2.6369E-01
500.22	2.7094E-01
500.56	2.6784E-01
500.91	2.6903E-01
501.26	2.6649E-01
501.60	2.6845E-01
501.95	2.6609E-01
502.29	2.6751E-01
502.64	2.6559E-01
502.98	2.6960E-01
503.33	2.6529E-01
503.67	2.6827E-01
504.02	2.6663E-01
504.36	2.6550E-01
504.71	2.6736E-01
505.06	2.6535E-01
505.40	2.6373E-01
505.75	2.6469E-01
506.09	2.6426E-01
506.44	2.6390E-01
506.78	2.6538E-01
507.13	2.6628E-01
507.47	2.6344E-01
507.82	2.6319E-01
508.16	2.6371E-01
508.51	2.6270E-01
508.85	2.5962E-01
509.19	2.6042E-01
509.54	2.6245E-01
509.88	2.6194E-01
510.23	2.5731E-01
510.57	2.5811E-01
510.92	2.5998E-01
511.26	2.5979E-01
511.61	2.5989E-01
511.95	2.5773E-01
512.30	2.5733E-01
512.64	2.5839E-01
512.98	2.5724E-01
513.33	2.5829E-01
513.67	2.5640E-01
514.02	2.5747E-01
514.36	2.5421E-01
514.70	2.5511E-01
515.05	2.5412E-01
515.39	2.5474E-01
515.74	2.5517E-01
516.08	2.5611E-01
516.42	2.5286E-01
516.77	2.5461E-01
517.11	2.5234E-01
517.46	2.5318E-01
517.80	2.5272E-01
518.14	2.5198E-01
518.49	2.5150E-01
518.83	2.5077E-01
519.17	2.5431E-01
519.52	2.5187E-01
519.86	2.5276E-01
520.20	2.5019E-01
520.55	2.5168E-01
520.89	2.5028E-01
521.23	2.5136E-01
521.58	2.5284E-01
521.92	2.5171E-01
522.26	2.5514E-01
522.61	2.5086E-01
522.95	2.5290E-01
523.29	2.4967E-01
523.64	2.5082E-01
523.98	2.5292E-01
524.32	2.5270E-01
524.66	2.5308E-01
525.01	2.5332E-01
525.35	2.5502E-01
525.69	2.5463E-01
526.04	2.5635E-01
526.38	2.5091E-01
526.72	2.5728E-01
527.06	2.5425E-01
527.41	2.5740E-01
527.75	2.5816E-01
528.09	2.5541E-01
528.43	2.5979E-01
528.78	2.5774E-01
529.12	2.6241E-01
529.46	2.6055E-01
529.80	2.6141E-01
530.15	2.6119E-01
530.49	2.6238E-01
530.83	2.6473E-01
531.17	2.6407E-01
531.51	2.6602E-01
531.86	2.6399E-01
532.20	2.6739E-01
532.54	2.6688E-01
532.88	2.6866E-01
533.22	2.7094E-01
533.57	2.7462E-01
533.91	2.7008E-01
534.25	2.7166E-01
534.59	2.7207E-01
534.93	2.7163E-01
535.27	2.7214E-01
535.62	2.7746E-01
535.96	2.7635E-01
536.30	2.7589E-01
536.64	2.7732E-01
536.98	2.8125E-01
537.32	2.7833E-01
537.66	2.8127E-01
538.01	2.8063E-01
538.35	2.8414E-01
538.69	2.8281E-01
539.03	2.8663E-01
539.37	2.8487E-01
539.71	2.8711E-01
540.05	2.8569E-01
540.39	2.8599E-01
540.73	2.8745E-01
541.07	2.8672E-01
541.42	2.8668E-01
541.76	2.8827E-01
542.10	2.9025E-01
542.44	2.9059E-01
542.78	2.9336E-01
543.12	2.8810E-01
543.46	2.9438E-01
543.80	2.8964E-01
544.14	2.9174E-01
544.48	2.8991E-01
544.82	2.9454E-01
545.16	2.9334E-01
545.50	2.9287E-01
545.84	2.9764E-01
546.18	2.9441E-01
546.52	2.9538E-01
546.86	2.9434E-01
547.20	2.9949E-01
547.54	3.0181E-01
547.88	2.9721E-01
548.22	2.9765E-01
548.56	3.0065E-01
548.90	3.0080E-01
549.24	3.0075E-01
549.58	3.0160E-01
549.92	3.0165E-01
550.26	3.0288E-01
550.60	3.0199E-01
550.94	3.0059E-01
551.28	3.0521E-01
551.62	3.0141E-01
551.96	3.0364E-01
552.30	3.0528E-01
552.64	3.0508E-01
552.98	3.0531E-01
553.32	3.0601E-01
553.66	3.0601E-01
554.00	3.0242E-01
554.34	3.0509E-01
554.68	3.0507E-01
555.02	3.0386E-01
555.36	3.0758E-01
555.69	3.0903E-01
556.03	3.0476E-01
556.37	3.0760E-01
556.71	3.0540E-01
557.05	3.0532E-01
557.39	3.0752E-01
557.73	3.0515E-01
558.07	3.0776E-01
558.41	3.0748E-01
558.75	3.0852E-01
559.08	3.0707E-01
559.42	3.0594E-01
559.76	3.0841E-01
560.10	3.0902E-01
560.44	3.0962E-01
560.78	3.0549E-01
561.12	3.1024E-01
561.45	3.1022E-01
561.79	3.0877E-01
562.13	3.0809E-01
562.47	3.0842E-01
562.81	3.1012E-01
563.15	3.1080E-01
563.48	3.1094E-01
563.82	3.0719E-01
564.16	3.0969E-01
564.50	3.1277E-01
564.84	3.0867E-01
565.17	3.0960E-01
565.51	3.0781E-01
565.85	3.1201E-01
566.19	3.0803E-01
566.52	3.1227E-01
566.86	3.0984E-01
567.20	3.1403E-01
567.54	3.1267E-01
567.88	3.1276E-01
568.21	3.1345E-01
568.55	3.1263E-01
568.89	3.1324E-01
569.23	3.1339E-01
569.56	3.1241E-01
569.90	3.1296E-01
570.24	3.1664E-01
570.57	3.1361E-01
570.91	3.1565E-01
571.25	3.1438E-01
571.59	3.1524E-01
571.92	3.1587E-01
572.26	3.1613E-01
572.60	3.1816E-01
572.93	3.1676E-01
573.27	3.2190E-01
573.61	3.2163E-01
573.95	3.1428E-01
574.28	3.2217E-01
574.62	3.2156E-01
574.96	3.2435E-01
575.29	3.2324E-01
575.63	3.2746E-01
575.97	3.2509E-01
576.30	3.3026E-01
576.64	3.2666E-01
576.98	3.2906E-01
577.31	3.3047E-01
577.65	3.3345E-01
577.98	3.2779E-01
578.32	3.3460E-01
578.66	3.3717E-01
578.99	3.3565E-01
579.33	3.3819E-01
579.67	3.3726E-01
580.00	3.3858E-01
580.34	3.3870E-01
580.67	3.4138E-01
581.01	3.4038E-01
581.35	3.4269E-01
581.68	3.4364E-01
582.02	3.4545E-01
582.35	3.4412E-01
582.69	3.4658E-01
583.02	3.5204E-01
583.36	3.5151E-01
583.70	3.5073E-01
584.03	3.5126E-01
584.37	3.5107E-01
584.70	3.5425E-01
585.04	3.5730E-01
585.37	3.5532E-01
585.71	3.5972E-01
586.04	3.5939E-01
586.38	3.5701E-01
586.72	3.6476E-01
587.05	3.5976E-01
587.39	3.6333E-01
587.72	3.6093E-01
588.06	3.6643E-01
588.39	3.6099E-01
588.73	3.6895E-01
589.06	3.6697E-01
589.40	3.6991E-01
589.73	3.7249E-01
590.07	3.7234E-01
590.40	3.7443E-01
590.73	3.7677E-01
591.07	3.7530E-01
591.40	3.7846E-01
591.74	3.7254E-01
592.07	3.7890E-01
592.41	3.8044E-01
592.74	3.8129E-01
593.08	3.7758E-01
593.41	3.8038E-01
593.75	3.8242E-01
594.08	3.8667E-01
594.41	3.8541E-01
594.75	3.8716E-01
595.08	3.8504E-01
595.42	3.8183E-01
595.75	3.8512E-01
596.09	3.8889E-01
596.42	3.8619E-01
596.75	3.8754E-01
597.09	3.9356E-01
597.42	3.8614E-01
597.75	3.9452E-01
598.09	3.9329E-01
598.42	3.9108E-01
598.76	3.9104E-01
599.09	3.9485E-01
599.42	3.9650E-01
599.76	3.9427E-01
600.09	3.9653E-01
600.42	4.0015E-01
600.76	3.9114E-01
601.09	3.9427E-01
601.42	4.0379E-01
601.76	4.0061E-01
602.09	3.9902E-01
602.42	3.9774E-01
602.76	3.9768E-01
603.09	3.9854E-01
603.42	4.0172E-01
603.76	3.9892E-01
604.09	4.0065E-01
604.42	4.0072E-01
604.76	3.9824E-01
605.09	4.0388E-01
605.42	4.0033E-01
605.75	4.0267E-01
606.09	4.0498E-01
606.42	4.0397E-01
606.75	4.0669E-01
607.09	4.0411E-01
607.42	4.0327E-01
607.75	4.0447E-01
608.08	4.0565E-01
608.42	4.0840E-01
608.75	4.0565E-01
609.08	4.0931E-01
609.41	4.0752E-01
609.75	4.0567E-01
610.08	4.0900E-01
610.41	4.0930E-01
610.74	4.0945E-01
611.07	4.0991E-01
611.41	4.0523E-01
611.74	4.0946E-01
612.07	4.0811E-01
612.40	4.0572E-01
612.73	4.0995E-01
613.07	4.1489E-01
613.40	4.0852E-01
613.73	4.0823E-01
614.06	4.1240E-01
614.39	4.0992E-01
614.72	4.1472E-01
615.06	4.1276E-01
615.39	4.1705E-01
615.72	4.1267E-01
616.05	4.1785E-01
616.38	4.1827E-01
616.71	4.1621E-01
617.05	4.1351E-01
617.38	4.1839E-01
617.71	4.1717E-01
618.04	4.1701E-01
618.37	4.1293E-01
618.70	4.1682E-01
619.03	4.1727E-01
619.36	4.1034E-01
619.69	4.1886E-01
620.03	4.1577E-01
620.36	4.1641E-01
620.69	4.1581E-01
621.02	4.1420E-01
621.35	4.1482E-01
621.68	4.1311E-01
622.01	4.1622E-01
622.34	4.1504E-01
622.67	4.1524E-01
623.00	4.1491E-01
623.33	4.1336E-01
623.66	4.1522E-01
623.99	4.1715E-01
624.32	4.1109E-01
624.65	4.1354E-01
624.99	4.1369E-01
625.32	4.1832E-01
625.65	4.1562E-01
625.98	4.1121E-01
626.31	4.1416E-01
626.64	4.1795E-01
626.97	4.1646E-01
627.30	4.1265E-01
627.63	4.1175E-01
627.96	4.1086E-01
628.29	4.1255E-01
628.62	4.1506E-01
628.95	4.1491E-01
629.28	4.1077E-01
629.61	4.2039E-01
629.94	4.1710E-01
630.26	4.1899E-01
630.59	4.1916E-01
630.92	4.1758E-01
631.25	4.1723E-01
631.58	4.2511E-01
631.91	4.1936E-01
632.24	4.2423E-01
632.57	4.2334E-01
632.90	4.2458E-01
633.23	4.2229E-01
633.56	4.2585E-01
633.89	4.2546E-01
634.22	4.2721E-01
634.55	4.2741E-01
634.88	4.3100E-01
635.20	4.3235E-01
635.53	4.3652E-01
635.86	4.3329E-01
636.19	4.3990E-01
636.52	4.4012E-01
636.85	4.4016E-01
637.18	4.4431E-01
637.51	4.4353E-01
637.83	4.4685E-01
638.16	4.4536E-01
638.49	4.5298E-01
638.82	4.4748E-01
639.15	4.5509E-01
639.48	4.5537E-01
639.81	4.6227E-01
640.13	4.5729E-01
640.46	4.6565E-01
640.79	4.6235E-01
641.12	4.6804E-01
641.45	4.6407E-01
641.77	4.6444E-01
642.10	4.7577E-01
642.43	4.7760E-01
642.76	4.8131E-01
643.09	4.7664E-01
643.41	4.8068E-01
643.74	4.8058E-01
644.07	4.8335E-01
644.40	4.8295E-01
644.73	4.9063E-01
645.05	4.9080E-01
645.38	4.8945E-01
645.71	4.9699E-01
646.04	4.9603E-01
646.36	4.9551E-01
646.69	5.0436E-01
647.02	5.0597E-01
647.35	5.0117E-01
647.67	5.0900E-01
648.00	5.0666E-01
648.33	5.1124E-01
648.66	5.0894E-01
648.98	5.1555E-01
649.31	5.1312E-01
649.64	5.1499E-01
649.96	5.1897E-01
650.29	5.2659E-01
650.62	5.2290E-01
650.94	5.2295E-01
651.27	5.2564E-01
651.60	5.2336E-01
651.92	5.3390E-01
652.25	5.3744E-01
652.58	5.3548E-01
652.90	5.3475E-01
653.23	5.3574E-01
653.56	5.3885E-01
653.88	5.4274E-01
654.21	5.4106E-01
654.54	5.4502E-01
654.86	5.5071E-01
655.19	5.4797E-01
655.52	5.5357E-01
655.84	5.4754E-01
656.17	5.5525E-01
656.49	5.5493E-01
656.82	5.5219E-01
657.15	5.5846E-01
657.47	5.5991E-01
657.80	5.6211E-01
658.13	5.6075E-01
658.45	5.6323E-01
658.78	5.6423E-01
659.10	5.6942E-01
659.43	5.6629E-01
659.75	5.6893E-01
660.08	5.6706E-01
660.41	5.7840E-01
660.73	5.7505E-01
661.06	5.7479E-01
661.38	5.7857E-01
661.71	5.8186E-01
662.03	5.7886E-01
662.36	5.8637E-01
662.68	5.8191E-01
663.01	5.7770E-01
663.33	5.8580E-01
663.66	5.8810E-01
663.98	5.8705E-01
664.31	5.8793E-01
664.63	6.0102E-01
664.96	5.8598E-01
665.28	5.9382E-01
665.61	5.9529E-01
665.93	5.9577E-01
666.26	5.9518E-01
666.58	5.9991E-01
666.91	6.0096E-01
667.23	6.0735E-01
667.56	6.0154E-01
667.88	6.0503E-01
668.21	6.0906E-01
668.53	6.0626E-01
668.86	6.1338E-01
669.18	6.0886E-01
669.50	6.1680E-01
669.83	6.1141E-01
670.15	6.1621E-01
670.48	6.1764E-01
670.80	6.1658E-01
671.13	6.1659E-01
671.45	6.2045E-01
671.77	6.2062E-01
672.10	6.1755E-01
672.42	6.3301E-01
672.75	6.2642E-01
673.07	6.3050E-01
673.39	6.2499E-01
673.72	6.2911E-01
674.04	6.3327E-01
674.37	6.3365E-01
674.69	6.3259E-01
675.01	6.3616E-01
675.34	6.4252E-01
675.66	6.4088E-01
675.98	6.3570E-01
676.31	6.4545E-01
676.63	6.4256E-01
676.95	6.4460E-01
677.28	6.5174E-01
677.60	6.5243E-01
677.92	6.4721E-01
678.25	6.5530E-01
678.57	6.5607E-01
678.89	6.5203E-01
679.22	6.6233E-01
679.54	6.5900E-01
679.86	6.6137E-01
680.18	6.6640E-01
680.51	6.5928E-01
680.83	6.7506E-01
681.15	6.6642E-01
681.48	6.7027E-01
681.80	6.7058E-01
682.12	6.6817E-01
682.44	6.8043E-01
682.77	6.8263E-01
683.09	6.8611E-01
683.41	6.8033E-01
683.73	6.8915E-01
684.06	6.8544E-01
684.38	6.8882E-01
684.70	6.9150E-01
685.02	6.9376E-01
685.34	7.0004E-01
685.67	6.9661E-01
685.99	7.1083E-01
686.31	7.0096E-01
686.63	7.0993E-01
686.96	7.1394E-01
687.28	7.1789E-01
687.60	7.0592E-01
687.92	7.1326E-01
688.24	7.2262E-01
688.56	7.2900E-01
688.89	7.2206E-01
689.21	7.3061E-01
689.53	7.2682E-01
689.85	7.3528E-01
690.17	7.3076E-01
690.49	7.4420E-01
690.82	7.4346E-01
691.14	7.4298E-01
691.46	7.4643E-01
691.78	7.4965E-01
692.10	7.4714E-01
692.42	7.5695E-01
692.74	7.6283E-01
693.06	7.5992E-01
693.39	7.6970E-01
693.71	7.7461E-01
694.03	7.7526E-01
694.35	7.7971E-01
694.67	7.8004E-01
694.99	7.9302E-01
695.31	7.8651E-01
695.63	7.9097E-01
695.95	7.9780E-01
696.27	7.9762E-01
696.59	7.9997E-01
696.91	8.0871E-01
697.23	8.1410E-01
697.56	8.1512E-01
697.88	8.1411E-01
698.20	8.1898E-01
698.52	8.2403E-01
698.84	8.3093E-01
699.16	8.3385E-01
699.48	8.3084E-01
699.80	8.3818E-01
700.12	8.4896E-01
700.44	8.4902E-01
700.76	8.5366E-01
701.08	8.6216E-01
701.40	8.5985E-01
701.72	8.6502E-01
702.04	8.6720E-01
702.36	8.7510E-01
702.68	8.8218E-01
703.00	8.8487E-01
703.32	8.8959E-01
703.64	8.9650E-01
703.96	8.8735E-01
704.28	8.9172E-01
704.60	9.0002E-01
704.91	9.0926E-01
705.23	9.0758E-01
705.55	9.2275E-01
705.87	9.1868E-01
706.19	9.1876E-01
706.51	9.2548E-01
706.83	9.2924E-01
707.15	9.4854E-01
707.47	9.4028E-01
707.79	9.5381E-01
708.11	9.5199E-01
708.43	9.5803E-01
708.74	9.6503E-01
709.06	9.7438E-01
709.38	9.7312E-01
709.70	9.7445E-01
710.02	9.8384E-01
710.34	9.7933E-01
710.66	9.9551E-01
710.98	1.0020E00
711.29	1.0044E00
711.61	1.0160E00
711.93	1.0172E00
712.25	1.0131E00
712.57	1.0266E00
712.89	1.0355E00
713.20	1.0339E00
713.52	1.0375E00
713.84	1.0575E00
714.16	1.0474E00
714.48	1.0474E00
714.80	1.0677E00
715.11	1.0663E00
715.43	1.0742E00
715.75	1.0741E00
716.07	1.1038E00
716.39	1.0748E00
716.70	1.0935E00
717.02	1.0900E00
717.34	1.1201E00
717.66	1.1161E00
717.97	8.6992E-01
718.29	7.7483E-01
718.61	1.0439E00
718.93	7.3876E-01
719.24	7.0856E-01
719.56	6.9932E-01
719.88	6.9848E-01
720.20	6.8918E-01
720.51	7.0676E-01
720.83	7.3217E-01
721.15	8.0073E-01
721.46	8.5084E-01
721.78	9.0369E-01
722.10	9.5909E-01
722.42	9.7257E-01
722.73	9.7476E-01
723.05	9.6135E-01
723.37	9.1666E-01
723.68	8.7249E-01
724.00	8.2152E-01
724.32	8.0017E-01
724.63	7.7826E-01
724.95	7.6578E-01
725.27	7.6218E-01
725.58	7.6401E-01
725.90	7.8821E-01
726.22	7.6214E-01
726.53	7.8154E-01
726.85	7.8186E-01
727.16	8.2164E-01
727.48	7.9894E-01
727.80	7.5186E-01
728.11	7.4689E-01
728.43	7.7125E-01
728.74	8.2212E-01
729.06	7.5861E-01
729.38	7.4341E-01
729.69	7.3318E-01
730.01	7.5204E-01
730.32	7.4997E-01
730.64	7.4313E-01
730.96	7.2393E-01
731.27	7.3364E-01
731.59	7.2334E-01
731.90	7.3187E-01
732.22	7.6546E-01
732.53	8.0343E-01
732.85	8.1271E-01
733.16	8.2560E-01
733.48	8.1438E-01
733.80	8.3578E-01
734.11	8.5599E-01
734.43	8.6864E-01
734.74	8.5611E-01
735.06	8.6023E-01
735.37	8.5013E-01
735.69	8.5836E-01
736.00	8.3398E-01
736.32	8.1121E-01
736.63	9.7322E-01
736.95	8.2444E-01
737.26	8.4200E-01
737.58	8.2800E-01
737.89	8.2807E-01
738.21	8.4743E-01
738.52	8.3668E-01
738.83	8.3059E-01
739.15	8.4044E-01
739.46	9.4054E-01
739.78	8.3816E-01
740.09	8.5199E-01
740.41	8.5985E-01
740.72	8.8679E-01
741.04	8.6636E-01
741.35	8.8474E-01
741.66	8.6398E-01
741.98	8.7676E-01
742.29	8.8998E-01
742.61	8.9427E-01
742.92	8.8557E-01
743.23	9.0520E-01
743.55	9.3655E-01
743.86	9.1193E-01
744.18	9.2728E-01
744.49	9.2396E-01
744.80	9.4228E-01
745.12	9.3377E-01
745.43	9.5073E-01
745.74	9.3387E-01
746.06	9.4445E-01
746.37	9.6309E-01
746.68	9.5593E-01
747.00	9.5049E-01
747.31	9.8858E-01
747.62	9.5525E-01
747.94	9.4893E-01
748.25	9.5783E-01
748.56	9.4889E-01
748.88	9.5714E-01
749.19	9.5136E-01
749.50	9.4529E-01
749.82	9.7091E-01
750.13	9.4949E-01
750.44	9.6822E-01
750.75	9.4370E-01
751.07	9.4464E-01
751.38	9.5272E-01
751.69	9.5638E-01
752.01	9.6344E-01
752.32	9.5998E-01
752.63	9.8395E-01
752.94	9.5815E-01
753.26	9.5132E-01
753.57	9.6464E-01
753.88	9.8443E-01
754.19	1.0441E00
754.51	9.6870E-01
754.82	1.0794E00
755.13	1.0006E00
755.44	9.5911E-01
755.75	9.7818E-01
756.07	9.8493E-01
756.38	9.7175E-01
756.69	1.0097E00
757.00	9.7609E-01
757.31	9.6882E-01
757.63	9.9207E-01
757.94	9.8445E-01
758.25	9.7443E-01
758.56	9.7646E-01
758.87	9.8370E-01
759.18	9.0996E-01
759.50	8.1333E-01
759.81	7.1329E-01
760.12	5.0527E-01
760.43	3.9868E-01
760.74	3.4643E-01
761.05	3.0692E-01
761.36	3.4319E-01
761.67	4.3046E-01
761.99	4.5647E-01
762.30	4.9359E-01
762.61	4.8066E-01
762.92	4.5920E-01
763.23	4.6542E-01
763.54	4.5497E-01
763.85	4.7158E-01
764.16	4.8773E-01
764.47	6.5171E-01
764.78	5.3949E-01
765.10	6.5060E-01
765.41	6.1495E-01
765.72	7.3760E-01
766.03	6.7550E-01
766.34	7.0529E-01
766.65	7.4907E-01
766.96	8.7370E-01
767.27	8.2403E-01
767.58	8.6200E-01
767.89	8.9914E-01
768.20	9.4053E-01
768.51	9.1866E-01
768.82	9.3812E-01
769.13	9.7842E-01
769.44	9.5420E-01
769.75	9.9768E-01
770.06	9.6452E-01
770.37	9.8030E-01
770.68	9.8890E-01
770.99	1.0049E00
771.30	9.9464E-01
771.61	9.9994E-01
771.92	1.0137E00
772.23	1.0430E00
772.54	1.0090E00
772.85	1.0161E00
773.16	1.0201E00
773.47	1.0560E00
773.78	1.0610E00
774.09	1.0522E00
774.39	1.0835E00
774.70	1.0223E00
775.01	1.0498E00
775.32	1.0352E00
775.63	1.0634E00
775.94	1.0360E00
776.25	1.0468E00
776.56	1.0578E00
776.87	1.0516E00
777.18	1.0425E00
777.48	1.1054E00
777.79	1.0506E00
778.10	1.1030E00
778.41	1.1095E00
778.72	1.0651E00
779.03	1.0681E00
779.34	1.0997E00
779.65	1.0935E00
779.95	1.0813E00
780.26	1.0739E00
780.57	1.1175E00
780.88	1.1000E00
781.19	1.1155E00
781.50	1.0946E00
781.80	1.0806E00
782.11	1.0901E00
782.42	1.0805E00
782.73	1.1156E00
783.04	1.1028E00
783.34	1.1014E00
783.65	1.1071E00
783.96	1.1097E00
784.27	1.0806E00
784.57	1.1228E00
784.88	1.0943E00
785.19	1.1715E00
785.50	1.1419E00
785.81	1.0980E00
786.11	1.1026E00
786.42	1.0955E00
786.73	1.1235E00
787.04	1.1606E00
787.34	1.0769E00
787.65	1.0739E00
787.96	1.0966E00
788.26	1.0903E00
788.57	1.1107E00
788.88	1.0565E00
789.19	1.0406E00
789.49	1.0685E00
789.80	1.1528E00
790.11	1.0876E00
790.41	1.0550E00
790.72	1.1190E00
791.03	1.0493E00
791.33	1.0566E00
791.64	1.0510E00
791.95	1.0806E00
792.25	1.0967E00
792.56	1.0880E00
792.87	1.1488E00
793.17	1.0807E00
793.48	1.1106E00
793.79	1.1537E00
794.09	1.1417E00
794.40	1.1825E00
794.70	1.1576E00
795.01	1.2592E00
795.32	1.1211E00
795.62	1.1833E00
795.93	1.1011E00
796.23	1.1273E00
796.54	1.0819E00
796.85	1.1149E00
797.15	1.1107E00
797.46	1.1125E00
797.76	1.1291E00
798.07	1.2193E00
798.37	1.1824E00
798.68	1.1768E00
798.99	1.2017E00
799.29	1.1520E00
799.60	1.1873E00
799.90	1.1462E00
800.21	1.1275E00
800.51	1.1123E00
800.82	1.2310E00
801.12	1.1792E00
801.43	1.1809E00
801.73	1.1268E00
802.04	1.1310E00
802.34	1.1309E00
802.65	1.1681E00
802.95	1.1530E00
803.26	1.1720E00
803.56	1.1468E00
803.87	1.1337E00
804.17	1.1104E00
804.48	1.1513E00
804.78	1.1751E00
805.09	1.1383E00
805.39	1.1883E00
805.70	1.2320E00
806.00	1.1994E00
806.30	1.2342E00
806.61	1.2045E00
806.91	1.2002E00
807.22	1.2462E00
807.52	1.2751E00
807.83	1.2037E00
808.13	1.2481E00
808.43	1.2511E00
808.74	1.2808E00
809.04	1.1791E00
809.35	1.1688E00
809.65	1.2074E00
809.95	1.1733E00
810.26	1.1438E00
810.56	1.1326E00
810.86	1.2051E00
811.17	1.1157E00
811.47	1.1615E00
811.77	1.0778E00
812.08	1.0852E00
812.38	1.0789E00
812.69	1.0460E00
812.99	1.0929E00
813.29	9.8660E-01
813.59	9.6990E-01
813.90	9.9440E-01
814.20	9.7026E-01
814.50	9.8377E-01
814.81	9.6508E-01
815.11	9.6570E-01
815.41	8.5573E-01
815.72	8.5759E-01
816.02	8.1503E-01
816.32	7.8463E-01
816.62	7.7803E-01
816.93	8.2333E-01
817.23	7.9656E-01
817.53	7.8490E-01
817.84	7.9027E-01
818.14	7.9134E-01
818.44	8.5523E-01
818.74	9.3424E-01
819.04	8.2858E-01
819.35	8.2151E-01
819.65	8.1160E-01
819.95	8.4159E-01
820.25	8.5798E-01
820.56	8.9056E-01
820.86	9.1830E-01
821.16	1.0386E00
821.46	9.6404E-01
821.76	9.3111E-01
822.07	1.0819E00
822.37	9.9593E-01
822.67	1.1755E00
822.97	1.0303E00
823.27	8.5933E-01
823.57	7.7717E-01
823.88	7.9912E-01
824.18	8.0762E-01
824.48	8.2308E-01
824.78	8.3284E-01
825.08	9.5348E-01
825.38	9.6664E-01
825.69	8.8066E-01
825.99	9.0703E-01
826.29	9.0369E-01
826.59	9.1724E-01
826.89	9.1427E-01
827.19	1.1201E00
827.49	9.5517E-01
827.79	8.6594E-01
828.09	8.5651E-01
828.39	8.4281E-01
828.70	8.1398E-01
829.00	9.1530E-01
829.30	8.1208E-01
829.60	8.0194E-01
829.90	9.2585E-01
830.20	8.1768E-01
830.50	8.0217E-01
830.80	8.6576E-01
831.10	8.0883E-01
831.40	8.7791E-01
831.70	8.6862E-01
832.00	8.6172E-01
832.30	7.8598E-01
832.60	7.6720E-01
832.90	7.6362E-01
833.20	7.8373E-01
833.50	7.7384E-01
833.80	7.6640E-01
834.10	7.8763E-01
834.40	8.8134E-01
834.70	8.6874E-01
835.00	8.1082E-01
835.30	8.0308E-01
835.60	8.0581E-01
835.90	7.8913E-01
836.20	8.1021E-01
836.50	8.2071E-01
836.80	1.0020E00
837.10	1.4661E00
837.40	8.9014E-01
837.70	1.0285E00
838.00	8.3087E-01
838.30	9.1585E-01
838.60	9.2249E-01
838.90	9.1292E-01
839.19	1.2916E00
839.49	8.2465E-01
839.79	9.4500E-01
840.09	8.4795E-01
840.39	9.5401E-01
840.69	9.4091E-01
840.99	1.1846E00
841.29	9.8729E-01
841.59	8.5658E-01
841.88	8.5941E-01
842.18	9.5209E-01
842.48	8.5646E-01
842.78	8.6347E-01
843.08	8.9367E-01
843.38	8.7182E-01
843.68	1.1158E00
843.97	1.0990E00
844.27	9.5089E-01
844.57	8.5241E-01
844.87	8.8278E-01
845.17	8.7537E-01
845.47	8.8018E-01
845.76	1.0098E00
846.06	1.0342E00
846.36	1.6717E00
846.66	8.8197E-01
846.96	9.9922E-01
847.25	8.9325E-01
847.55	8.8872E-01
847.85	9.3926E-01
848.15	8.9735E-01
848.44	8.9469E-01
848.74	9.1861E-01
849.04	9.1440E-01
849.34	1.0444E00
849.63	8.5906E-01
849.93	8.8084E-01
850.23	9.0333E-01
850.53	8.6443E-01
850.82	9.0188E-01
851.12	8.9779E-01
851.42	1.0405E00
851.71	9.3663E-01
852.01	9.0212E-01
852.31	9.7138E-01
852.61	9.0753E-01
852.90	9.0293E-01
853.20	1.0594E00
853.50	1.3770E00
853.79	1.2141E00
854.09	9.4585E-01
854.39	9.0377E-01
854.68	8.7908E-01
854.98	8.5456E-01
855.28	9.8094E-01
855.57	1.2361E00
855.87	1.0275E00
856.17	1.0646E00
856.46	9.4399E-01
856.76	8.7854E-01
857.05	1.0855E00
857.35	9.2607E-01
857.65	1.2699E00
857.94	1.1215E00
858.24	1.1815E00
858.53	9.7315E-01
858.83	1.7343E00
859.13	9.9975E-01
859.42	1.0301E00
859.72	1.1816E00
860.01	9.9136E-01
860.31	1.0018E00
860.60	1.0071E00
860.90	1.1725E00
861.20	1.0401E00
861.49	9.7279E-01
861.79	1.0292E00
862.08	2.4314E00
862.38	1.4332E00
862.67	1.0376E00
862.97	1.0110E00
863.26	1.0776E00
863.56	1.2736E00
863.85	1.5135E00
864.15	1.0603E00
864.44	1.0116E00
864.74	1.0652E00
865.03	1.4904E00
865.33	1.2518E00
865.62	1.0730E00
865.92	1.0654E00
866.21	1.1194E00
866.51	1.0472E00
866.80	1.3802E00
867.10	1.5145E00
867.39	1.2669E00
867.69	1.4965E00
867.98	1.0584E00
868.27	1.0327E00
868.57	1.0288E00
868.86	1.3159E00
869.16	1.0342E00
869.45	1.0372E00
869.75	1.0660E00
870.04	1.0152E00
870.33	1.3175E00
870.63	1.0812E00
870.92	1.0986E00
871.22	2.5110E00
871.51	1.1529E00
871.80	1.3721E00
872.10	1.3721E00
>>>>>End Processed Spectral Data<<<<<
