SpectraSuite Data File
++++++++++++++++++++++++++++++++++++
Date: Tue May 12 13:11:48 PDT 2015
User: schluterlab
Dark Spectrum Present: Yes
Reference Spectrum Present: No
Number of Sampled Component Spectra: 1
Spectrometers: USB2E3373
Integration Time (usec): 2300000 (USB2E3373)
Spectra Averaged: 3 (USB2E3373)
Boxcar Smoothing: 0 (USB2E3373)
Correct for Electrical Dark: No (USB2E3373)
Strobe/Lamp Enabled: No (USB2E3373)
Correct for Detector Non-linearity: No (USB2E3373)
Correct for Stray Light: No (USB2E3373)
Number of Pixels in Processed Spectrum: 2048
>>>>>Begin Processed Spectral Data<<<<<
178.53	0.0000E00
178.91	0.0000E00
179.29	0.0000E00
179.67	0.0000E00
180.04	0.0000E00
180.42	0.0000E00
180.80	0.0000E00
181.18	0.0000E00
181.56	0.0000E00
181.94	0.0000E00
182.31	0.0000E00
182.69	0.0000E00
183.07	0.0000E00
183.45	0.0000E00
183.83	0.0000E00
184.20	0.0000E00
184.58	0.0000E00
184.96	0.0000E00
185.34	0.0000E00
185.72	0.0000E00
186.09	0.0000E00
186.47	0.0000E00
186.85	0.0000E00
187.23	0.0000E00
187.61	0.0000E00
187.98	0.0000E00
188.36	0.0000E00
188.74	0.0000E00
189.12	0.0000E00
189.49	0.0000E00
189.87	0.0000E00
190.25	0.0000E00
190.63	0.0000E00
191.00	0.0000E00
191.38	0.0000E00
191.76	0.0000E00
192.14	0.0000E00
192.51	0.0000E00
192.89	0.0000E00
193.27	0.0000E00
193.65	0.0000E00
194.02	0.0000E00
194.40	0.0000E00
194.78	0.0000E00
195.15	0.0000E00
195.53	-0.0000E00
195.91	0.0000E00
196.29	0.0000E00
196.66	0.0000E00
197.04	0.0000E00
197.42	0.0000E00
197.79	0.0000E00
198.17	0.0000E00
198.55	0.0000E00
198.92	0.0000E00
199.30	0.0000E00
199.68	0.0000E00
200.05	0.0000E00
200.43	0.0000E00
200.81	0.0000E00
201.18	0.0000E00
201.56	0.0000E00
201.94	0.0000E00
202.31	-0.0000E00
202.69	0.0000E00
203.07	0.0000E00
203.44	0.0000E00
203.82	0.0000E00
204.19	0.0000E00
204.57	0.0000E00
204.95	0.0000E00
205.32	0.0000E00
205.70	0.0000E00
206.08	0.0000E00
206.45	0.0000E00
206.83	0.0000E00
207.20	0.0000E00
207.58	0.0000E00
207.96	0.0000E00
208.33	0.0000E00
208.71	0.0000E00
209.08	0.0000E00
209.46	0.0000E00
209.84	0.0000E00
210.21	0.0000E00
210.59	0.0000E00
210.96	0.0000E00
211.34	0.0000E00
211.71	0.0000E00
212.09	0.0000E00
212.46	0.0000E00
212.84	0.0000E00
213.22	0.0000E00
213.59	0.0000E00
213.97	0.0000E00
214.34	0.0000E00
214.72	0.0000E00
215.09	0.0000E00
215.47	0.0000E00
215.84	0.0000E00
216.22	0.0000E00
216.59	0.0000E00
216.97	0.0000E00
217.34	0.0000E00
217.72	0.0000E00
218.09	0.0000E00
218.47	0.0000E00
218.84	0.0000E00
219.22	0.0000E00
219.59	0.0000E00
219.97	0.0000E00
220.34	0.0000E00
220.72	0.0000E00
221.09	0.0000E00
221.47	0.0000E00
221.84	0.0000E00
222.22	0.0000E00
222.59	0.0000E00
222.97	0.0000E00
223.34	0.0000E00
223.72	0.0000E00
224.09	0.0000E00
224.46	0.0000E00
224.84	0.0000E00
225.21	0.0000E00
225.59	0.0000E00
225.96	0.0000E00
226.34	0.0000E00
226.71	0.0000E00
227.08	0.0000E00
227.46	0.0000E00
227.83	0.0000E00
228.21	0.0000E00
228.58	0.0000E00
228.95	0.0000E00
229.33	0.0000E00
229.70	0.0000E00
230.08	0.0000E00
230.45	0.0000E00
230.82	0.0000E00
231.20	0.0000E00
231.57	0.0000E00
231.95	0.0000E00
232.32	0.0000E00
232.69	0.0000E00
233.07	0.0000E00
233.44	0.0000E00
233.81	0.0000E00
234.19	0.0000E00
234.56	0.0000E00
234.93	0.0000E00
235.31	0.0000E00
235.68	0.0000E00
236.05	0.0000E00
236.43	0.0000E00
236.80	0.0000E00
237.17	0.0000E00
237.55	0.0000E00
237.92	0.0000E00
238.29	0.0000E00
238.67	0.0000E00
239.04	0.0000E00
239.41	0.0000E00
239.79	0.0000E00
240.16	0.0000E00
240.53	0.0000E00
240.91	0.0000E00
241.28	0.0000E00
241.65	0.0000E00
242.02	0.0000E00
242.40	0.0000E00
242.77	0.0000E00
243.14	0.0000E00
243.51	0.0000E00
243.89	0.0000E00
244.26	0.0000E00
244.63	0.0000E00
245.00	0.0000E00
245.38	0.0000E00
245.75	0.0000E00
246.12	0.0000E00
246.49	0.0000E00
246.87	0.0000E00
247.24	0.0000E00
247.61	0.0000E00
247.98	0.0000E00
248.36	0.0000E00
248.73	0.0000E00
249.10	0.0000E00
249.47	0.0000E00
249.84	0.0000E00
250.22	0.0000E00
250.59	0.0000E00
250.96	0.0000E00
251.33	0.0000E00
251.70	0.0000E00
252.08	0.0000E00
252.45	0.0000E00
252.82	0.0000E00
253.19	0.0000E00
253.56	0.0000E00
253.94	0.0000E00
254.31	0.0000E00
254.68	0.0000E00
255.05	0.0000E00
255.42	0.0000E00
255.79	0.0000E00
256.16	0.0000E00
256.54	0.0000E00
256.91	0.0000E00
257.28	0.0000E00
257.65	0.0000E00
258.02	0.0000E00
258.39	0.0000E00
258.76	0.0000E00
259.14	0.0000E00
259.51	0.0000E00
259.88	0.0000E00
260.25	0.0000E00
260.62	0.0000E00
260.99	0.0000E00
261.36	0.0000E00
261.73	0.0000E00
262.10	0.0000E00
262.47	0.0000E00
262.85	0.0000E00
263.22	0.0000E00
263.59	0.0000E00
263.96	0.0000E00
264.33	0.0000E00
264.70	0.0000E00
265.07	0.0000E00
265.44	0.0000E00
265.81	0.0000E00
266.18	0.0000E00
266.55	0.0000E00
266.92	0.0000E00
267.29	0.0000E00
267.66	0.0000E00
268.03	0.0000E00
268.40	0.0000E00
268.77	0.0000E00
269.14	0.0000E00
269.51	0.0000E00
269.88	0.0000E00
270.25	0.0000E00
270.62	0.0000E00
270.99	0.0000E00
271.36	0.0000E00
271.73	0.0000E00
272.10	0.0000E00
272.47	0.0000E00
272.84	0.0000E00
273.21	0.0000E00
273.58	0.0000E00
273.95	0.0000E00
274.32	0.0000E00
274.69	0.0000E00
275.06	0.0000E00
275.43	0.0000E00
275.80	0.0000E00
276.17	0.0000E00
276.54	0.0000E00
276.91	0.0000E00
277.28	0.0000E00
277.65	0.0000E00
278.02	0.0000E00
278.39	0.0000E00
278.76	0.0000E00
279.13	0.0000E00
279.50	0.0000E00
279.87	0.0000E00
280.23	0.0000E00
280.60	0.0000E00
280.97	0.0000E00
281.34	0.0000E00
281.71	0.0000E00
282.08	0.0000E00
282.45	0.0000E00
282.82	0.0000E00
283.19	0.0000E00
283.56	0.0000E00
283.92	0.0000E00
284.29	0.0000E00
284.66	0.0000E00
285.03	0.0000E00
285.40	0.0000E00
285.77	0.0000E00
286.14	0.0000E00
286.51	0.0000E00
286.87	0.0000E00
287.24	0.0000E00
287.61	0.0000E00
287.98	0.0000E00
288.35	0.0000E00
288.72	0.0000E00
289.08	0.0000E00
289.45	0.0000E00
289.82	0.0000E00
290.19	0.0000E00
290.56	0.0000E00
290.93	0.0000E00
291.29	0.0000E00
291.66	0.0000E00
292.03	0.0000E00
292.40	0.0000E00
292.77	0.0000E00
293.13	0.0000E00
293.50	0.0000E00
293.87	0.0000E00
294.24	0.0000E00
294.60	0.0000E00
294.97	0.0000E00
295.34	0.0000E00
295.71	0.0000E00
296.08	0.0000E00
296.44	0.0000E00
296.81	0.0000E00
297.18	0.0000E00
297.55	0.0000E00
297.91	0.0000E00
298.28	0.0000E00
298.65	0.0000E00
299.02	0.0000E00
299.38	0.0000E00
299.75	0.0000E00
300.12	5.7995E-02
300.48	1.6783E-01
300.85	5.6871E-02
301.22	1.4673E-01
301.59	5.3280E-02
301.95	6.2617E-02
302.32	7.8731E-02
302.69	7.9968E-02
303.05	4.7168E-02
303.42	6.7741E-02
303.79	7.7792E-02
304.15	5.2816E-02
304.52	4.9388E-02
304.89	4.6577E-02
305.25	1.0628E-01
305.62	5.7842E-02
305.99	8.0004E-02
306.35	4.1350E-02
306.72	5.3846E-02
307.09	7.7128E-02
307.45	6.2688E-02
307.82	3.8835E-02
308.19	5.1473E-02
308.55	4.6431E-02
308.92	6.2573E-02
309.29	4.5250E-02
309.65	1.4291E-01
310.02	4.8674E-02
310.38	4.1645E-02
310.75	5.0392E-02
311.12	4.8944E-02
311.48	8.3380E-02
311.85	6.6847E-02
312.22	4.8769E-02
312.58	8.5573E-02
312.95	5.3434E-02
313.31	4.9906E-02
313.68	6.0518E-02
314.05	1.0253E-01
314.41	5.7546E-02
314.78	4.0159E-02
315.14	1.4103E-01
315.51	1.1641E-01
315.87	4.8973E-02
316.24	7.2041E-02
316.61	6.8546E-02
316.97	4.7152E-02
317.34	1.0298E-01
317.70	5.9580E-02
318.07	6.9165E-02
318.43	8.5785E-02
318.80	5.4202E-02
319.16	6.8012E-02
319.53	4.6711E-02
319.89	9.9390E-02
320.26	8.3227E-02
320.62	8.7714E-02
320.99	9.2865E-02
321.35	5.2905E-02
321.72	9.0701E-02
322.08	1.0063E-01
322.45	1.1133E-01
322.81	6.6863E-02
323.18	2.6821E-01
323.54	1.1732E-01
323.91	8.0220E-02
324.27	1.8658E-01
324.64	1.4000E-01
325.00	1.1866E-01
325.37	1.5141E-01
325.73	5.7580E-02
326.10	2.4336E-01
326.46	1.0068E-01
326.83	1.0388E-01
327.19	1.8544E-01
327.56	8.1295E-02
327.92	1.1677E-01
328.29	9.3123E-02
328.65	1.0416E-01
329.01	1.4360E-01
329.38	9.5127E-02
329.74	7.6964E-02
330.11	1.3153E-01
330.47	8.0076E-02
330.84	1.1001E-01
331.20	1.1067E-01
331.56	1.0396E-01
331.93	1.1720E-01
332.29	1.3288E-01
332.66	7.7561E-02
333.02	1.0326E-01
333.38	1.4906E-01
333.75	7.8993E-02
334.11	2.0937E-01
334.48	1.0683E-01
334.84	9.9218E-02
335.20	1.2509E-01
335.57	2.3301E-01
335.93	1.5491E-01
336.29	1.2972E-01
336.66	1.1082E-01
337.02	1.1389E-01
337.38	9.5938E-02
337.75	1.0802E-01
338.11	8.6013E-02
338.47	1.3016E-01
338.84	1.1145E-01
339.20	8.7755E-02
339.56	2.5431E-01
339.93	1.3008E-01
340.29	1.1718E-01
340.65	1.1148E-01
341.02	1.9037E-01
341.38	1.2466E-01
341.74	1.5085E-01
342.11	1.5065E-01
342.47	1.4961E-01
342.83	1.3041E-01
343.20	1.8104E-01
343.56	1.1800E-01
343.92	2.5072E-01
344.28	9.9588E-02
344.65	1.5338E-01
345.01	1.0061E-01
345.37	1.5399E-01
345.73	1.5558E-01
346.10	1.2548E-01
346.46	1.7153E-01
346.82	1.1592E-01
347.19	2.6014E-01
347.55	1.0807E-01
347.91	1.1236E-01
348.27	1.2572E-01
348.63	1.1027E-01
349.00	1.1921E-01
349.36	2.2635E-01
349.72	1.4678E-01
350.08	2.2294E-01
350.45	1.4008E-01
350.81	1.2234E-01
351.17	1.8347E-01
351.53	1.9039E-01
351.89	1.6036E-01
352.26	1.9417E-01
352.62	1.4481E-01
352.98	1.5712E-01
353.34	1.4006E-01
353.70	2.0645E-01
354.07	1.9834E-01
354.43	2.2991E-01
354.79	1.9035E-01
355.15	1.4845E-01
355.51	1.3844E-01
355.87	1.6113E-01
356.24	1.5475E-01
356.60	1.5803E-01
356.96	1.7564E-01
357.32	1.3232E-01
357.68	1.3448E-01
358.04	1.1199E-01
358.40	1.2166E-01
358.77	1.1214E-01
359.13	1.3907E-01
359.49	1.6026E-01
359.85	1.8033E-01
360.21	1.3532E-01
360.57	1.6383E-01
360.93	1.6248E-01
361.29	1.9990E-01
361.66	1.4713E-01
362.02	1.3878E-01
362.38	1.7617E-01
362.74	1.6362E-01
363.10	2.3461E-01
363.46	2.1040E-01
363.82	1.7905E-01
364.18	2.3075E-01
364.54	2.1098E-01
364.90	2.1028E-01
365.26	2.1061E-01
365.62	2.4990E-01
365.98	2.3181E-01
366.35	1.9064E-01
366.71	2.4107E-01
367.07	3.0147E-01
367.43	1.9839E-01
367.79	2.8528E-01
368.15	2.4959E-01
368.51	3.2681E-01
368.87	2.6042E-01
369.23	2.9201E-01
369.59	2.3149E-01
369.95	2.6148E-01
370.31	2.4919E-01
370.67	2.8616E-01
371.03	2.3597E-01
371.39	2.3698E-01
371.75	2.4939E-01
372.11	2.5715E-01
372.47	2.2243E-01
372.83	2.3337E-01
373.19	1.8401E-01
373.55	2.3182E-01
373.91	2.5248E-01
374.27	2.5437E-01
374.63	2.4765E-01
374.99	2.2723E-01
375.35	2.3382E-01
375.71	2.4776E-01
376.07	2.6888E-01
376.42	2.6795E-01
376.78	2.5377E-01
377.14	2.9198E-01
377.50	3.5516E-01
377.86	3.1161E-01
378.22	3.1633E-01
378.58	3.2634E-01
378.94	3.1029E-01
379.30	3.0239E-01
379.66	2.8592E-01
380.02	2.8045E-01
380.38	2.9152E-01
380.74	3.3555E-01
381.09	3.3519E-01
381.45	3.0567E-01
381.81	2.8095E-01
382.17	2.6647E-01
382.53	2.6225E-01
382.89	2.2874E-01
383.25	2.2050E-01
383.61	2.1573E-01
383.97	2.1390E-01
384.32	2.2554E-01
384.68	2.4575E-01
385.04	3.0318E-01
385.40	3.1242E-01
385.76	3.2083E-01
386.12	2.8460E-01
386.48	2.9606E-01
386.83	2.8065E-01
387.19	2.9001E-01
387.55	3.2420E-01
387.91	3.1595E-01
388.27	2.9607E-01
388.62	3.2591E-01
388.98	3.0649E-01
389.34	3.5228E-01
389.70	3.5114E-01
390.06	3.7719E-01
390.42	3.8234E-01
390.77	3.8287E-01
391.13	4.3986E-01
391.49	4.0511E-01
391.85	4.2677E-01
392.20	3.6900E-01
392.56	3.3939E-01
392.92	3.2109E-01
393.28	2.7628E-01
393.64	2.5048E-01
393.99	2.4880E-01
394.35	2.8688E-01
394.71	3.1767E-01
395.07	3.6797E-01
395.42	4.0993E-01
395.78	4.1725E-01
396.14	3.8003E-01
396.50	3.5755E-01
396.85	3.3594E-01
397.21	3.0025E-01
397.57	3.1279E-01
397.92	3.4918E-01
398.28	4.0650E-01
398.64	5.0946E-01
399.00	4.8633E-01
399.35	5.2529E-01
399.71	5.8608E-01
400.07	5.7310E-01
400.42	5.5413E-01
400.78	5.9875E-01
401.14	6.1096E-01
401.49	5.8433E-01
401.85	5.8851E-01
402.21	6.1594E-01
402.57	6.1129E-01
402.92	6.4211E-01
403.28	6.0427E-01
403.63	5.9681E-01
403.99	6.0878E-01
404.35	5.9755E-01
404.70	5.8528E-01
405.06	5.9875E-01
405.42	6.0242E-01
405.77	5.6980E-01
406.13	5.6987E-01
406.49	5.6435E-01
406.84	5.7103E-01
407.20	5.5895E-01
407.55	6.0242E-01
407.91	6.0939E-01
408.27	5.7546E-01
408.62	5.7985E-01
408.98	5.8679E-01
409.34	5.9574E-01
409.69	5.7010E-01
410.05	6.0077E-01
410.40	5.7310E-01
410.76	5.2963E-01
411.11	5.3403E-01
411.47	5.7889E-01
411.83	5.4863E-01
412.18	5.5935E-01
412.54	5.4830E-01
412.89	5.4487E-01
413.25	5.6539E-01
413.60	5.8996E-01
413.96	5.5326E-01
414.31	5.5635E-01
414.67	5.8731E-01
415.03	5.7577E-01
415.38	5.8989E-01
415.74	5.8303E-01
416.09	5.7923E-01
416.45	5.8745E-01
416.80	5.7585E-01
417.16	5.7082E-01
417.51	5.6771E-01
417.87	5.4701E-01
418.22	5.4058E-01
418.58	5.5188E-01
418.93	5.2857E-01
419.29	5.6621E-01
419.64	5.4975E-01
420.00	5.1993E-01
420.35	5.1025E-01
420.71	5.3566E-01
421.06	5.3756E-01
421.42	5.5122E-01
421.77	5.4345E-01
422.12	5.4215E-01
422.48	5.1335E-01
422.83	5.4867E-01
423.19	5.1874E-01
423.54	5.1909E-01
423.90	5.2533E-01
424.25	4.9605E-01
424.61	5.4742E-01
424.96	5.1224E-01
425.31	5.0863E-01
425.67	4.8798E-01
426.02	5.0949E-01
426.38	5.0922E-01
426.73	4.8270E-01
427.09	5.0493E-01
427.44	4.8332E-01
427.79	4.8914E-01
428.15	5.0427E-01
428.50	5.0061E-01
428.85	5.1303E-01
429.21	4.7326E-01
429.56	4.6339E-01
429.92	4.7254E-01
430.27	4.8801E-01
430.62	4.8727E-01
430.98	4.9335E-01
431.33	4.8248E-01
431.68	4.6633E-01
432.04	4.6278E-01
432.39	4.6946E-01
432.74	4.8672E-01
433.10	4.5622E-01
433.45	4.8285E-01
433.80	4.8002E-01
434.16	4.9096E-01
434.51	4.6708E-01
434.86	4.8636E-01
435.22	4.6860E-01
435.57	5.0121E-01
435.92	4.9112E-01
436.28	4.8880E-01
436.63	4.5352E-01
436.98	4.8498E-01
437.34	4.8187E-01
437.69	4.5807E-01
438.04	4.4582E-01
438.39	4.7711E-01
438.75	4.8833E-01
439.10	4.4066E-01
439.45	4.7864E-01
439.81	4.7334E-01
440.16	4.4505E-01
440.51	4.6519E-01
440.86	4.6354E-01
441.22	4.5291E-01
441.57	4.5726E-01
441.92	4.4394E-01
442.27	4.6598E-01
442.63	4.5614E-01
442.98	4.8749E-01
443.33	4.7702E-01
443.68	4.4358E-01
444.03	4.1882E-01
444.39	4.2045E-01
444.74	4.5654E-01
445.09	4.6318E-01
445.44	4.6402E-01
445.79	4.0964E-01
446.15	4.4041E-01
446.50	4.5497E-01
446.85	4.2797E-01
447.20	4.1626E-01
447.55	4.5013E-01
447.91	4.3331E-01
448.26	4.4424E-01
448.61	4.4025E-01
448.96	4.3157E-01
449.31	4.3783E-01
449.66	4.4211E-01
450.02	4.3497E-01
450.37	4.3534E-01
450.72	4.2955E-01
451.07	4.6315E-01
451.42	4.6012E-01
451.77	4.3476E-01
452.12	4.3447E-01
452.47	4.5467E-01
452.83	4.1788E-01
453.18	4.4187E-01
453.53	4.3695E-01
453.88	4.1159E-01
454.23	4.0632E-01
454.58	4.0668E-01
454.93	4.3636E-01
455.28	4.3335E-01
455.63	4.2099E-01
455.98	4.1145E-01
456.34	4.3357E-01
456.69	4.2004E-01
457.04	4.2360E-01
457.39	3.9742E-01
457.74	4.0562E-01
458.09	3.9496E-01
458.44	3.9417E-01
458.79	3.8547E-01
459.14	3.9884E-01
459.49	4.1507E-01
459.84	3.9211E-01
460.19	4.1717E-01
460.54	4.1462E-01
460.89	3.8196E-01
461.24	4.1841E-01
461.59	4.0015E-01
461.94	4.0563E-01
462.29	3.7910E-01
462.64	4.0082E-01
462.99	4.0472E-01
463.34	4.2814E-01
463.69	4.0119E-01
464.04	3.7438E-01
464.39	3.8865E-01
464.74	3.9441E-01
465.09	4.0521E-01
465.44	3.8158E-01
465.79	3.9356E-01
466.14	3.9513E-01
466.49	3.8878E-01
466.84	3.8503E-01
467.19	3.9854E-01
467.54	3.9982E-01
467.89	3.8029E-01
468.24	3.6068E-01
468.59	3.7260E-01
468.94	3.6532E-01
469.29	3.6717E-01
469.64	3.7909E-01
469.99	3.6544E-01
470.34	3.5366E-01
470.68	3.7670E-01
471.03	3.6347E-01
471.38	3.6439E-01
471.73	3.4721E-01
472.08	3.4281E-01
472.43	3.3084E-01
472.78	3.4958E-01
473.13	3.4576E-01
473.48	3.3975E-01
473.83	3.3355E-01
474.17	3.3833E-01
474.52	3.3476E-01
474.87	3.2102E-01
475.22	3.2801E-01
475.57	3.1188E-01
475.92	3.0391E-01
476.27	3.1290E-01
476.61	3.0462E-01
476.96	2.9680E-01
477.31	2.8782E-01
477.66	2.9317E-01
478.01	2.9145E-01
478.36	2.8983E-01
478.70	2.8561E-01
479.05	2.9027E-01
479.40	2.7680E-01
479.75	2.7363E-01
480.10	2.7573E-01
480.45	2.6905E-01
480.79	2.6791E-01
481.14	2.7170E-01
481.49	2.6513E-01
481.84	2.6023E-01
482.19	2.5855E-01
482.53	2.5795E-01
482.88	2.5582E-01
483.23	2.5138E-01
483.58	2.4617E-01
483.92	2.5242E-01
484.27	2.4447E-01
484.62	2.4284E-01
484.97	2.3782E-01
485.31	2.3644E-01
485.66	2.4175E-01
486.01	2.4162E-01
486.36	2.3020E-01
486.70	2.3650E-01
487.05	2.3512E-01
487.40	2.3514E-01
487.75	2.2819E-01
488.09	2.2860E-01
488.44	2.3054E-01
488.79	2.2702E-01
489.13	2.2449E-01
489.48	2.2713E-01
489.83	2.2780E-01
490.17	2.2163E-01
490.52	2.2170E-01
490.87	2.2266E-01
491.22	2.2557E-01
491.56	2.2232E-01
491.91	2.2533E-01
492.26	2.2273E-01
492.60	2.2268E-01
492.95	2.2468E-01
493.30	2.2440E-01
493.64	2.2156E-01
493.99	2.2282E-01
494.34	2.2015E-01
494.68	2.1776E-01
495.03	2.2341E-01
495.37	2.2121E-01
495.72	2.2340E-01
496.07	2.1853E-01
496.41	2.1994E-01
496.76	2.1852E-01
497.11	2.2060E-01
497.45	2.1954E-01
497.80	2.1995E-01
498.14	2.1999E-01
498.49	2.2022E-01
498.84	2.2090E-01
499.18	2.2058E-01
499.53	2.2034E-01
499.87	2.1829E-01
500.22	2.2090E-01
500.56	2.2026E-01
500.91	2.1996E-01
501.26	2.1971E-01
501.60	2.1948E-01
501.95	2.1762E-01
502.29	2.2040E-01
502.64	2.1651E-01
502.98	2.2011E-01
503.33	2.1806E-01
503.67	2.1869E-01
504.02	2.1794E-01
504.36	2.1777E-01
504.71	2.1850E-01
505.06	2.1636E-01
505.40	2.1650E-01
505.75	2.1786E-01
506.09	2.1784E-01
506.44	2.1773E-01
506.78	2.1560E-01
507.13	2.1677E-01
507.47	2.1520E-01
507.82	2.1491E-01
508.16	2.1697E-01
508.51	2.1496E-01
508.85	2.1246E-01
509.19	2.1500E-01
509.54	2.1478E-01
509.88	2.1521E-01
510.23	2.1195E-01
510.57	2.1273E-01
510.92	2.1225E-01
511.26	2.1250E-01
511.61	2.1245E-01
511.95	2.1248E-01
512.30	2.1128E-01
512.64	2.1273E-01
512.98	2.0918E-01
513.33	2.1063E-01
513.67	2.1113E-01
514.02	2.1041E-01
514.36	2.0862E-01
514.70	2.0988E-01
515.05	2.0767E-01
515.39	2.0917E-01
515.74	2.0718E-01
516.08	2.0615E-01
516.42	2.0788E-01
516.77	2.0835E-01
517.11	2.0855E-01
517.46	2.0960E-01
517.80	2.0649E-01
518.14	2.0765E-01
518.49	2.0596E-01
518.83	2.0682E-01
519.17	2.0672E-01
519.52	2.0723E-01
519.86	2.0596E-01
520.20	2.0508E-01
520.55	2.0586E-01
520.89	2.0456E-01
521.23	2.0675E-01
521.58	2.0615E-01
521.92	2.0793E-01
522.26	2.0875E-01
522.61	2.0547E-01
522.95	2.0712E-01
523.29	2.0428E-01
523.64	2.0451E-01
523.98	2.0544E-01
524.32	2.0602E-01
524.66	2.0770E-01
525.01	2.0772E-01
525.35	2.0846E-01
525.69	2.0904E-01
526.04	2.0835E-01
526.38	2.0537E-01
526.72	2.0953E-01
527.06	2.0818E-01
527.41	2.1002E-01
527.75	2.1176E-01
528.09	2.1024E-01
528.43	2.1361E-01
528.78	2.1105E-01
529.12	2.1310E-01
529.46	2.1456E-01
529.80	2.1394E-01
530.15	2.1445E-01
530.49	2.1449E-01
530.83	2.1565E-01
531.17	2.1573E-01
531.51	2.1511E-01
531.86	2.1683E-01
532.20	2.1774E-01
532.54	2.1722E-01
532.88	2.1877E-01
533.22	2.2076E-01
533.57	2.2165E-01
533.91	2.2112E-01
534.25	2.2323E-01
534.59	2.2167E-01
534.93	2.2367E-01
535.27	2.2266E-01
535.62	2.2685E-01
535.96	2.2599E-01
536.30	2.2648E-01
536.64	2.2684E-01
536.98	2.2881E-01
537.32	2.2804E-01
537.66	2.2808E-01
538.01	2.3043E-01
538.35	2.3243E-01
538.69	2.2959E-01
539.03	2.3508E-01
539.37	2.3289E-01
539.71	2.3467E-01
540.05	2.3514E-01
540.39	2.3586E-01
540.73	2.3474E-01
541.07	2.3537E-01
541.42	2.3580E-01
541.76	2.3590E-01
542.10	2.3720E-01
542.44	2.3821E-01
542.78	2.3839E-01
543.12	2.3793E-01
543.46	2.4283E-01
543.80	2.4000E-01
544.14	2.3988E-01
544.48	2.3909E-01
544.82	2.4189E-01
545.16	2.4243E-01
545.50	2.4056E-01
545.84	2.4306E-01
546.18	2.4148E-01
546.52	2.4418E-01
546.86	2.4208E-01
547.20	2.4550E-01
547.54	2.4837E-01
547.88	2.4381E-01
548.22	2.4454E-01
548.56	2.4569E-01
548.90	2.4396E-01
549.24	2.4616E-01
549.58	2.4676E-01
549.92	2.4516E-01
550.26	2.4939E-01
550.60	2.4589E-01
550.94	2.4460E-01
551.28	2.4796E-01
551.62	2.4635E-01
551.96	2.4875E-01
552.30	2.4991E-01
552.64	2.4869E-01
552.98	2.4866E-01
553.32	2.4925E-01
553.66	2.4780E-01
554.00	2.4846E-01
554.34	2.4924E-01
554.68	2.5017E-01
555.02	2.5056E-01
555.36	2.5146E-01
555.69	2.5050E-01
556.03	2.5038E-01
556.37	2.5156E-01
556.71	2.4934E-01
557.05	2.4885E-01
557.39	2.4948E-01
557.73	2.4976E-01
558.07	2.5177E-01
558.41	2.5063E-01
558.75	2.5110E-01
559.08	2.5110E-01
559.42	2.4855E-01
559.76	2.5272E-01
560.10	2.5218E-01
560.44	2.5214E-01
560.78	2.4965E-01
561.12	2.5139E-01
561.45	2.5073E-01
561.79	2.5190E-01
562.13	2.5209E-01
562.47	2.5225E-01
562.81	2.5231E-01
563.15	2.5227E-01
563.48	2.5274E-01
563.82	2.4982E-01
564.16	2.5201E-01
564.50	2.5225E-01
564.84	2.5258E-01
565.17	2.5291E-01
565.51	2.5235E-01
565.85	2.5443E-01
566.19	2.5128E-01
566.52	2.5484E-01
566.86	2.5201E-01
567.20	2.5434E-01
567.54	2.5350E-01
567.88	2.5363E-01
568.21	2.5347E-01
568.55	2.5511E-01
568.89	2.5496E-01
569.23	2.5486E-01
569.56	2.5449E-01
569.90	2.5545E-01
570.24	2.5712E-01
570.57	2.5695E-01
570.91	2.5754E-01
571.25	2.5399E-01
571.59	2.5705E-01
571.92	2.5699E-01
572.26	2.5766E-01
572.60	2.5992E-01
572.93	2.5858E-01
573.27	2.6095E-01
573.61	2.6148E-01
573.95	2.5743E-01
574.28	2.6202E-01
574.62	2.6225E-01
574.96	2.6226E-01
575.29	2.6181E-01
575.63	2.6579E-01
575.97	2.6511E-01
576.30	2.7104E-01
576.64	2.6770E-01
576.98	2.6732E-01
577.31	2.6857E-01
577.65	2.7129E-01
577.98	2.6953E-01
578.32	2.7179E-01
578.66	2.7310E-01
578.99	2.7366E-01
579.33	2.7461E-01
579.67	2.7269E-01
580.00	2.7633E-01
580.34	2.7569E-01
580.67	2.7696E-01
581.01	2.7967E-01
581.35	2.8026E-01
581.68	2.8174E-01
582.02	2.8066E-01
582.35	2.8264E-01
582.69	2.8258E-01
583.02	2.8708E-01
583.36	2.8422E-01
583.70	2.8397E-01
584.03	2.8571E-01
584.37	2.8400E-01
584.70	2.8991E-01
585.04	2.8994E-01
585.37	2.8853E-01
585.71	2.9317E-01
586.04	2.9200E-01
586.38	2.9006E-01
586.72	2.9395E-01
587.05	2.9539E-01
587.39	2.9627E-01
587.72	2.9445E-01
588.06	2.9668E-01
588.39	2.9662E-01
588.73	2.9961E-01
589.06	2.9761E-01
589.40	3.0204E-01
589.73	3.0332E-01
590.07	3.0441E-01
590.40	3.0434E-01
590.73	3.0804E-01
591.07	3.0492E-01
591.40	3.1167E-01
591.74	3.0466E-01
592.07	3.0899E-01
592.41	3.1038E-01
592.74	3.1127E-01
593.08	3.0903E-01
593.41	3.1133E-01
593.75	3.0896E-01
594.08	3.1388E-01
594.41	3.1254E-01
594.75	3.1335E-01
595.08	3.1331E-01
595.42	3.0974E-01
595.75	3.1500E-01
596.09	3.1475E-01
596.42	3.1305E-01
596.75	3.1693E-01
597.09	3.1839E-01
597.42	3.1521E-01
597.75	3.1900E-01
598.09	3.2000E-01
598.42	3.1748E-01
598.76	3.1948E-01
599.09	3.2355E-01
599.42	3.2339E-01
599.76	3.2180E-01
600.09	3.2089E-01
600.42	3.2572E-01
600.76	3.1970E-01
601.09	3.2328E-01
601.42	3.2651E-01
601.76	3.2273E-01
602.09	3.2194E-01
602.42	3.2412E-01
602.76	3.2335E-01
603.09	3.2214E-01
603.42	3.2815E-01
603.76	3.2427E-01
604.09	3.2451E-01
604.42	3.2678E-01
604.76	3.2433E-01
605.09	3.2951E-01
605.42	3.2624E-01
605.75	3.2777E-01
606.09	3.2626E-01
606.42	3.2714E-01
606.75	3.2883E-01
607.09	3.2927E-01
607.42	3.2935E-01
607.75	3.3000E-01
608.08	3.2935E-01
608.42	3.3202E-01
608.75	3.2809E-01
609.08	3.3239E-01
609.41	3.3168E-01
609.75	3.2986E-01
610.08	3.3178E-01
610.41	3.3364E-01
610.74	3.3298E-01
611.07	3.3291E-01
611.41	3.3230E-01
611.74	3.3339E-01
612.07	3.3532E-01
612.40	3.3047E-01
612.73	3.3404E-01
613.07	3.3587E-01
613.40	3.3213E-01
613.73	3.3121E-01
614.06	3.3437E-01
614.39	3.3518E-01
614.72	3.3641E-01
615.06	3.3593E-01
615.39	3.3992E-01
615.72	3.3425E-01
616.05	3.3774E-01
616.38	3.3858E-01
616.71	3.3957E-01
617.05	3.3753E-01
617.38	3.3961E-01
617.71	3.3730E-01
618.04	3.3922E-01
618.37	3.3719E-01
618.70	3.3842E-01
619.03	3.3955E-01
619.36	3.3385E-01
619.69	3.4071E-01
620.03	3.3729E-01
620.36	3.3809E-01
620.69	3.3668E-01
621.02	3.3957E-01
621.35	3.3822E-01
621.68	3.3531E-01
622.01	3.3438E-01
622.34	3.3643E-01
622.67	3.3579E-01
623.00	3.3702E-01
623.33	3.3762E-01
623.66	3.3534E-01
623.99	3.3592E-01
624.32	3.3498E-01
624.65	3.3589E-01
624.99	3.3562E-01
625.32	3.3697E-01
625.65	3.3629E-01
625.98	3.3112E-01
626.31	3.3548E-01
626.64	3.3662E-01
626.97	3.3678E-01
627.30	3.3415E-01
627.63	3.3641E-01
627.96	3.3312E-01
628.29	3.3316E-01
628.62	3.3639E-01
628.95	3.3600E-01
629.28	3.3077E-01
629.61	3.4117E-01
629.94	3.3631E-01
630.26	3.3691E-01
630.59	3.3857E-01
630.92	3.3697E-01
631.25	3.3870E-01
631.58	3.4224E-01
631.91	3.3741E-01
632.24	3.4465E-01
632.57	3.4110E-01
632.90	3.4153E-01
633.23	3.4234E-01
633.56	3.4405E-01
633.89	3.4449E-01
634.22	3.4547E-01
634.55	3.4688E-01
634.88	3.5080E-01
635.20	3.5015E-01
635.53	3.5222E-01
635.86	3.5260E-01
636.19	3.5648E-01
636.52	3.5771E-01
636.85	3.5485E-01
637.18	3.5913E-01
637.51	3.5612E-01
637.83	3.5990E-01
638.16	3.5624E-01
638.49	3.6734E-01
638.82	3.6564E-01
639.15	3.6816E-01
639.48	3.7092E-01
639.81	3.7283E-01
640.13	3.6930E-01
640.46	3.7534E-01
640.79	3.7482E-01
641.12	3.7854E-01
641.45	3.7769E-01
641.77	3.7526E-01
642.10	3.8400E-01
642.43	3.8509E-01
642.76	3.8671E-01
643.09	3.8424E-01
643.41	3.8773E-01
643.74	3.8806E-01
644.07	3.8822E-01
644.40	3.9103E-01
644.73	3.9537E-01
645.05	3.9681E-01
645.38	3.9980E-01
645.71	4.0027E-01
646.04	4.0071E-01
646.36	3.9971E-01
646.69	4.0638E-01
647.02	4.0656E-01
647.35	4.0401E-01
647.67	4.0920E-01
648.00	4.0789E-01
648.33	4.1266E-01
648.66	4.1059E-01
648.98	4.1616E-01
649.31	4.1492E-01
649.64	4.1681E-01
649.96	4.2100E-01
650.29	4.2322E-01
650.62	4.2330E-01
650.94	4.2313E-01
651.27	4.2235E-01
651.60	4.2361E-01
651.92	4.3060E-01
652.25	4.3173E-01
652.58	4.3067E-01
652.90	4.3286E-01
653.23	4.3328E-01
653.56	4.3490E-01
653.88	4.3668E-01
654.21	4.3660E-01
654.54	4.3857E-01
654.86	4.4425E-01
655.19	4.3907E-01
655.52	4.4562E-01
655.84	4.4472E-01
656.17	4.4717E-01
656.49	4.5207E-01
656.82	4.4716E-01
657.15	4.5220E-01
657.47	4.5204E-01
657.80	4.5193E-01
658.13	4.5392E-01
658.45	4.5670E-01
658.78	4.5518E-01
659.10	4.6079E-01
659.43	4.6046E-01
659.75	4.5940E-01
660.08	4.5773E-01
660.41	4.6351E-01
660.73	4.6418E-01
661.06	4.6743E-01
661.38	4.6615E-01
661.71	4.6725E-01
662.03	4.6777E-01
662.36	4.7409E-01
662.68	4.7255E-01
663.01	4.6693E-01
663.33	4.7127E-01
663.66	4.7484E-01
663.98	4.7180E-01
664.31	4.7229E-01
664.63	4.8161E-01
664.96	4.7861E-01
665.28	4.8177E-01
665.61	4.8132E-01
665.93	4.8217E-01
666.26	4.8425E-01
666.58	4.8497E-01
666.91	4.8156E-01
667.23	4.8725E-01
667.56	4.8149E-01
667.88	4.8881E-01
668.21	4.8865E-01
668.53	4.8635E-01
668.86	4.9602E-01
669.18	4.8863E-01
669.50	4.9965E-01
669.83	4.9795E-01
670.15	4.9913E-01
670.48	4.9819E-01
670.80	4.9709E-01
671.13	4.9469E-01
671.45	4.9996E-01
671.77	5.0280E-01
672.10	4.9956E-01
672.42	5.0698E-01
672.75	5.0431E-01
673.07	5.0817E-01
673.39	5.0328E-01
673.72	5.0623E-01
674.04	5.1018E-01
674.37	5.1381E-01
674.69	5.1063E-01
675.01	5.1487E-01
675.34	5.1607E-01
675.66	5.1773E-01
675.98	5.1201E-01
676.31	5.2026E-01
676.63	5.2155E-01
676.95	5.1888E-01
677.28	5.2330E-01
677.60	5.2320E-01
677.92	5.2147E-01
678.25	5.2740E-01
678.57	5.2834E-01
678.89	5.2669E-01
679.22	5.3473E-01
679.54	5.3173E-01
679.86	5.3214E-01
680.18	5.3417E-01
680.51	5.3570E-01
680.83	5.4084E-01
681.15	5.3531E-01
681.48	5.3912E-01
681.80	5.4283E-01
682.12	5.3938E-01
682.44	5.4813E-01
682.77	5.4838E-01
683.09	5.5149E-01
683.41	5.4953E-01
683.73	5.5493E-01
684.06	5.5346E-01
684.38	5.5514E-01
684.70	5.5406E-01
685.02	5.5907E-01
685.34	5.6513E-01
685.67	5.6021E-01
685.99	5.6765E-01
686.31	5.6359E-01
686.63	5.7262E-01
686.96	5.6959E-01
687.28	5.7641E-01
687.60	5.6856E-01
687.92	5.7479E-01
688.24	5.8112E-01
688.56	5.8193E-01
688.89	5.8364E-01
689.21	5.8130E-01
689.53	5.8409E-01
689.85	5.9271E-01
690.17	5.8855E-01
690.49	5.9710E-01
690.82	5.9709E-01
691.14	5.9752E-01
691.46	6.0071E-01
691.78	6.0434E-01
692.10	5.9781E-01
692.42	6.0464E-01
692.74	6.0975E-01
693.06	6.1022E-01
693.39	6.2106E-01
693.71	6.2136E-01
694.03	6.2215E-01
694.35	6.2412E-01
694.67	6.2613E-01
694.99	6.3190E-01
695.31	6.3402E-01
695.63	6.3350E-01
695.95	6.3867E-01
696.27	6.3660E-01
696.59	6.4235E-01
696.91	6.5123E-01
697.23	6.5006E-01
697.56	6.4858E-01
697.88	6.5561E-01
698.20	6.5531E-01
698.52	6.6158E-01
698.84	6.6629E-01
699.16	6.7118E-01
699.48	6.6468E-01
699.80	6.7319E-01
700.12	6.7943E-01
700.44	6.8071E-01
700.76	6.8231E-01
701.08	6.8646E-01
701.40	6.8921E-01
701.72	6.9579E-01
702.04	6.9604E-01
702.36	7.0116E-01
702.68	7.0484E-01
703.00	7.0951E-01
703.32	7.1388E-01
703.64	7.1450E-01
703.96	7.0752E-01
704.28	7.1826E-01
704.60	7.2662E-01
704.91	7.2864E-01
705.23	7.3019E-01
705.55	7.3801E-01
705.87	7.3282E-01
706.19	7.3510E-01
706.51	7.4059E-01
706.83	7.4345E-01
707.15	7.6375E-01
707.47	7.4768E-01
707.79	7.6165E-01
708.11	7.6364E-01
708.43	7.6678E-01
708.74	7.7312E-01
709.06	7.8448E-01
709.38	7.7945E-01
709.70	7.7476E-01
710.02	7.8555E-01
710.34	7.8260E-01
710.66	8.0213E-01
710.98	7.9764E-01
711.29	7.9691E-01
711.61	8.1124E-01
711.93	8.1650E-01
712.25	8.0946E-01
712.57	8.2045E-01
712.89	8.2297E-01
713.20	8.2463E-01
713.52	8.3254E-01
713.84	8.3998E-01
714.16	8.3365E-01
714.48	8.3582E-01
714.80	8.4967E-01
715.11	8.4776E-01
715.43	8.5907E-01
715.75	8.6482E-01
716.07	8.7342E-01
716.39	8.5798E-01
716.70	8.6852E-01
717.02	8.6332E-01
717.34	8.8975E-01
717.66	8.8125E-01
717.97	8.9317E-01
718.29	8.9951E-01
718.61	9.1002E-01
718.93	9.1229E-01
719.24	9.1780E-01
719.56	9.4078E-01
719.88	8.8891E-01
720.20	8.0561E-01
720.51	7.5620E-01
720.83	7.8671E-01
721.15	8.5321E-01
721.46	9.1459E-01
721.78	9.5258E-01
722.10	9.8197E-01
722.42	9.9494E-01
722.73	1.0002E00
723.05	9.8460E-01
723.37	9.7815E-01
723.68	9.4693E-01
724.00	8.9009E-01
724.32	8.6325E-01
724.63	8.1015E-01
724.95	7.8282E-01
725.27	7.8269E-01
725.58	7.8276E-01
725.90	7.9520E-01
726.22	7.7312E-01
726.53	7.7598E-01
726.85	7.8350E-01
727.16	8.2043E-01
727.48	7.7810E-01
727.80	7.4047E-01
728.11	7.4258E-01
728.43	7.6499E-01
728.74	7.9261E-01
729.06	7.3779E-01
729.38	7.1741E-01
729.69	7.1421E-01
730.01	7.1658E-01
730.32	7.1127E-01
730.64	7.0448E-01
730.96	6.8644E-01
731.27	6.8889E-01
731.59	6.7498E-01
731.90	6.9256E-01
732.22	7.2419E-01
732.53	7.4429E-01
732.85	7.5016E-01
733.16	7.6704E-01
733.48	7.7320E-01
733.80	7.8832E-01
734.11	7.9966E-01
734.43	8.0137E-01
734.74	7.8579E-01
735.06	7.8956E-01
735.37	7.8360E-01
735.69	7.8103E-01
736.00	7.6189E-01
736.32	7.4154E-01
736.63	8.6447E-01
736.95	7.4238E-01
737.26	7.6869E-01
737.58	7.5457E-01
737.89	7.5175E-01
738.21	7.6981E-01
738.52	7.5906E-01
738.83	7.4610E-01
739.15	7.6102E-01
739.46	8.3924E-01
739.78	7.5954E-01
740.09	7.8050E-01
740.41	7.9202E-01
740.72	8.0486E-01
741.04	7.8480E-01
741.35	8.0001E-01
741.66	7.9690E-01
741.98	7.9607E-01
742.29	8.1359E-01
742.61	8.1213E-01
742.92	8.2067E-01
743.23	8.2837E-01
743.55	8.5052E-01
743.86	8.3579E-01
744.18	8.4671E-01
744.49	8.5480E-01
744.80	8.6284E-01
745.12	8.5977E-01
745.43	8.7043E-01
745.74	8.6185E-01
746.06	8.6847E-01
746.37	8.8609E-01
746.68	8.7651E-01
747.00	8.6961E-01
747.31	8.9913E-01
747.62	8.7609E-01
747.94	8.7893E-01
748.25	8.9157E-01
748.56	8.8210E-01
748.88	8.7767E-01
749.19	8.7653E-01
749.50	8.8016E-01
749.82	8.8486E-01
750.13	8.7810E-01
750.44	8.9299E-01
750.75	8.7125E-01
751.07	8.8111E-01
751.38	8.8740E-01
751.69	8.7463E-01
752.01	8.8327E-01
752.32	8.8643E-01
752.63	9.1214E-01
752.94	8.9200E-01
753.26	8.8973E-01
753.57	9.0377E-01
753.88	9.0814E-01
754.19	9.5976E-01
754.51	9.0176E-01
754.82	9.9047E-01
755.13	9.2626E-01
755.44	8.9915E-01
755.75	9.1166E-01
756.07	9.0969E-01
756.38	9.0817E-01
756.69	9.3513E-01
757.00	8.9955E-01
757.31	9.0694E-01
757.63	9.3034E-01
757.94	9.1764E-01
758.25	9.0901E-01
758.56	9.0470E-01
758.87	9.1661E-01
759.18	8.4611E-01
759.50	7.3970E-01
759.81	6.2906E-01
760.12	4.3872E-01
760.43	3.3924E-01
760.74	2.9037E-01
761.05	2.6606E-01
761.36	3.0841E-01
761.67	3.8299E-01
761.99	4.1656E-01
762.30	4.4613E-01
762.61	4.3531E-01
762.92	4.1079E-01
763.23	4.1243E-01
763.54	4.0948E-01
763.85	4.2207E-01
764.16	4.3227E-01
764.47	5.7091E-01
764.78	4.9510E-01
765.10	5.8791E-01
765.41	5.5831E-01
765.72	6.7486E-01
766.03	6.2920E-01
766.34	6.6512E-01
766.65	7.0972E-01
766.96	8.2324E-01
767.27	7.7679E-01
767.58	8.1943E-01
767.89	8.4831E-01
768.20	8.7633E-01
768.51	8.6296E-01
768.82	8.8378E-01
769.13	9.3226E-01
769.44	9.0092E-01
769.75	9.4165E-01
770.06	9.2179E-01
770.37	9.3676E-01
770.68	9.5080E-01
770.99	9.4772E-01
771.30	9.4255E-01
771.61	9.6504E-01
771.92	9.6362E-01
772.23	9.8882E-01
772.54	9.6327E-01
772.85	9.7100E-01
773.16	9.6860E-01
773.47	1.0032E00
773.78	9.9858E-01
774.09	1.0113E00
774.39	1.0155E00
774.70	9.7852E-01
775.01	1.0017E00
775.32	9.8290E-01
775.63	1.0262E00
775.94	1.0060E00
776.25	9.9860E-01
776.56	1.0059E00
776.87	1.0087E00
777.18	1.0077E00
777.48	1.0389E00
777.79	1.0061E00
778.10	1.0422E00
778.41	1.0521E00
778.72	1.0230E00
779.03	1.0293E00
779.34	1.0583E00
779.65	1.0459E00
779.95	1.0625E00
780.26	1.0359E00
780.57	1.0874E00
780.88	1.0748E00
781.19	1.0732E00
781.50	1.0684E00
781.80	1.0495E00
782.11	1.0569E00
782.42	1.0715E00
782.73	1.0833E00
783.04	1.0636E00
783.34	1.0741E00
783.65	1.0676E00
783.96	1.0835E00
784.27	1.0754E00
784.57	1.0967E00
784.88	1.0774E00
785.19	1.1250E00
785.50	1.1047E00
785.81	1.0745E00
786.11	1.0701E00
786.42	1.0590E00
786.73	1.0565E00
787.04	1.1166E00
787.34	1.0602E00
787.65	1.0631E00
787.96	1.0463E00
788.26	1.0550E00
788.57	1.0807E00
788.88	1.0388E00
789.19	1.0338E00
789.49	1.0437E00
789.80	1.0951E00
790.11	1.0439E00
790.41	1.0364E00
790.72	1.0785E00
791.03	1.0360E00
791.33	1.0416E00
791.64	1.0706E00
791.95	1.0521E00
792.25	1.0927E00
792.56	1.0573E00
792.87	1.1128E00
793.17	1.0693E00
793.48	1.1179E00
793.79	1.1276E00
794.09	1.1393E00
794.40	1.1692E00
794.70	1.1558E00
795.01	1.2003E00
795.32	1.1235E00
795.62	1.1786E00
795.93	1.0941E00
796.23	1.1115E00
796.54	1.0696E00
796.85	1.1023E00
797.15	1.1070E00
797.46	1.1229E00
797.76	1.1311E00
798.07	1.1953E00
798.37	1.1697E00
798.68	1.1672E00
798.99	1.1698E00
799.29	1.1656E00
799.60	1.1756E00
799.90	1.1383E00
800.21	1.1225E00
800.51	1.1250E00
800.82	1.1919E00
801.12	1.1678E00
801.43	1.1624E00
801.73	1.1500E00
802.04	1.1328E00
802.34	1.1228E00
802.65	1.1530E00
802.95	1.1424E00
803.26	1.1685E00
803.56	1.1313E00
803.87	1.1341E00
804.17	1.1317E00
804.48	1.1223E00
804.78	1.2018E00
805.09	1.1592E00
805.39	1.1859E00
805.70	1.2346E00
806.00	1.2050E00
806.30	1.2325E00
806.61	1.2173E00
806.91	1.2257E00
807.22	1.2790E00
807.52	1.2571E00
807.83	1.2348E00
808.13	1.2656E00
808.43	1.2332E00
808.74	1.2950E00
809.04	1.1980E00
809.35	1.1739E00
809.65	1.2091E00
809.95	1.1639E00
810.26	1.1357E00
810.56	1.1533E00
810.86	1.1650E00
811.17	1.1151E00
811.47	1.1265E00
811.77	1.0765E00
812.08	1.0386E00
812.38	1.0589E00
812.69	1.0289E00
812.99	1.0482E00
813.29	9.8112E-01
813.59	9.4121E-01
813.90	9.4822E-01
814.20	9.2164E-01
814.50	8.9741E-01
814.81	8.9357E-01
815.11	8.7363E-01
815.41	7.9827E-01
815.72	7.8966E-01
816.02	7.5563E-01
816.32	7.3226E-01
816.62	7.1648E-01
816.93	7.7651E-01
817.23	7.4278E-01
817.53	7.2986E-01
817.84	7.3475E-01
818.14	7.3031E-01
818.44	7.7268E-01
818.74	8.5494E-01
819.04	7.5295E-01
819.35	7.4889E-01
819.65	7.7755E-01
819.95	7.8793E-01
820.25	8.0520E-01
820.56	8.5818E-01
820.86	8.7096E-01
821.16	9.6172E-01
821.46	9.0592E-01
821.76	9.0749E-01
822.07	1.0135E00
822.37	8.8541E-01
822.67	1.0104E00
822.97	8.9751E-01
823.27	7.5005E-01
823.57	6.9438E-01
823.88	7.2923E-01
824.18	7.3128E-01
824.48	7.6201E-01
824.78	7.7311E-01
825.08	8.6368E-01
825.38	8.7314E-01
825.69	8.2336E-01
825.99	8.3363E-01
826.29	8.2613E-01
826.59	8.3165E-01
826.89	8.2714E-01
827.19	9.6445E-01
827.49	8.4891E-01
827.79	7.6892E-01
828.09	7.4611E-01
828.39	7.4099E-01
828.70	7.3066E-01
829.00	7.7311E-01
829.30	7.1109E-01
829.60	6.9207E-01
829.90	7.6654E-01
830.20	6.7975E-01
830.50	6.8401E-01
830.80	7.4895E-01
831.10	6.6427E-01
831.40	7.5085E-01
831.70	7.2606E-01
832.00	7.5291E-01
832.30	6.6206E-01
832.60	6.7354E-01
832.90	6.4872E-01
833.20	6.6866E-01
833.50	6.2382E-01
833.80	6.2939E-01
834.10	6.3368E-01
834.40	7.2449E-01
834.70	7.1953E-01
835.00	6.4677E-01
835.30	6.3968E-01
835.60	6.5800E-01
835.90	6.5768E-01
836.20	6.7945E-01
836.50	6.7937E-01
836.80	8.0909E-01
837.10	1.1442E00
837.40	7.5348E-01
837.70	8.2903E-01
838.00	6.6984E-01
838.30	7.1540E-01
838.60	7.6209E-01
838.90	7.6338E-01
839.19	1.0369E00
839.49	6.9143E-01
839.79	7.5317E-01
840.09	6.9344E-01
840.39	7.8360E-01
840.69	7.6892E-01
840.99	9.7230E-01
841.29	8.3838E-01
841.59	7.0639E-01
841.88	6.7666E-01
842.18	7.8216E-01
842.48	7.3018E-01
842.78	6.9397E-01
843.08	7.1311E-01
843.38	6.9770E-01
843.68	8.9788E-01
843.97	8.8609E-01
844.27	7.8920E-01
844.57	7.0625E-01
844.87	7.3582E-01
845.17	7.2481E-01
845.47	7.0264E-01
845.76	8.3293E-01
846.06	8.1256E-01
846.36	1.3003E00
846.66	7.4548E-01
846.96	8.3398E-01
847.25	7.1848E-01
847.55	7.0546E-01
847.85	7.2884E-01
848.15	7.3725E-01
848.44	7.3149E-01
848.74	7.2626E-01
849.04	7.2552E-01
849.34	8.1800E-01
849.63	7.1357E-01
849.93	7.0783E-01
850.23	7.0721E-01
850.53	6.7989E-01
850.82	7.4137E-01
851.12	6.9380E-01
851.42	7.9746E-01
851.71	7.5454E-01
852.01	7.2477E-01
852.31	7.6524E-01
852.61	7.2534E-01
852.90	7.1614E-01
853.20	8.2647E-01
853.50	1.1016E00
853.79	9.6740E-01
854.09	7.4124E-01
854.39	7.0738E-01
854.68	7.4367E-01
854.98	7.0211E-01
855.28	7.8676E-01
855.57	9.2943E-01
855.87	8.1134E-01
856.17	8.3170E-01
856.46	6.9675E-01
856.76	6.9478E-01
857.05	8.3452E-01
857.35	7.2869E-01
857.65	9.8133E-01
857.94	8.8964E-01
858.24	9.2652E-01
858.53	7.6732E-01
858.83	1.2656E00
859.13	7.8275E-01
859.42	7.8836E-01
859.72	9.0467E-01
860.01	7.9664E-01
860.31	7.8602E-01
860.60	7.6760E-01
860.90	9.3313E-01
861.20	7.8976E-01
861.49	7.5481E-01
861.79	8.2151E-01
862.08	1.9153E00
862.38	1.1567E00
862.67	8.0720E-01
862.97	7.8907E-01
863.26	8.1873E-01
863.56	1.0094E00
863.85	1.1529E00
864.15	8.0538E-01
864.44	8.4631E-01
864.74	8.2470E-01
865.03	1.1497E00
865.33	9.9788E-01
865.62	8.4765E-01
865.92	8.2387E-01
866.21	8.8841E-01
866.51	8.2532E-01
866.80	1.0841E00
867.10	1.2244E00
867.39	9.7568E-01
867.69	1.1710E00
867.98	8.2411E-01
868.27	8.3036E-01
868.57	8.3852E-01
868.86	1.0553E00
869.16	8.3934E-01
869.45	8.5695E-01
869.75	8.2439E-01
870.04	8.5015E-01
870.33	1.0736E00
870.63	8.1231E-01
870.92	9.1274E-01
871.22	1.9720E00
871.51	8.5750E-01
871.80	1.0811E00
872.10	1.0811E00
>>>>>End Processed Spectral Data<<<<<
